# 1-D Scan File created by LabVIEW Control Panel  7/1/2006  9:08:53 AM; Scan time 0 hrs 14 min 17 sec. 
#
# Beamline 20 BM 
#
# User Comment:
# Ag metal standard
#
#
# Amplifier Sensitivities:
# Preslit: 500 pA/V  IO: 5 nA/V  IT: 200 nA/V  IRef: 50 nA/V  Ifluor: 100 pA/V  
#
# Analog Input Voltages at start/end of scan:
# Preslit: 3.440/3.031  IO: 1.069/0.908  IT: 1.333/1.353  IRef: 1.284/0.657  Ifluor: 0.213/0.201  
#
# Mono Info:
# 
#
# ID Info:
# 
#
# Motor Positions:
# 
#
# Detector Names/PVs:
# Preslit/20bm:scaler1_netA.B  IO/20bm:scaler1_netA.C  IT/20bm:scaler1_netA.D  IRef/20bm:scaler1_netA.E  Ifluor/20bm:scaler1_netA.F  
#
# Positioner names/Drive PVs/Readback PVs:
# Mono Energy */20bm:monoE.VAL/20bm:EnctoE.VAL  Scaler preset time */20bm:scaler1.TP/  
#
# Column Headings:
#Mono Energy *        Scaler preset time * Preslit              IO                   IT                   IRef                 Ifluor               
       25314.63987468            1.00000000       332449.00000000        97149.18750000       122024.78125000       123611.78125000        11301.98730469 
       25323.94924037            1.00000000       342201.00000000        98041.18750000       123222.78125000       124866.78125000        11512.98730469 
       25334.67762733            1.00000000       342621.00000000        97927.18750000       123078.78125000       124786.78125000        11454.98730469 
       25343.86045795            1.00000000       342394.00000000        97861.18750000       123099.78125000       124848.78125000        11532.98730469 
       25353.47426085            1.00000000       341466.00000000        97691.18750000       122960.78125000       124750.78125000        11409.98730469 
       25365.36024043            1.00000000       340330.00000000        97397.18750000       122622.78125000       124441.78125000        11407.98730469 
       25372.86548095            1.00000000       340732.00000000        97317.18750000       122636.78125000       124465.78125000        11439.98730469 
       25384.62792612            1.00000000       339739.00000000        97157.18750000       122484.78125000       124331.78125000        11335.98730469 
       25395.54985974            1.00000000       338816.00000000        96936.19531250       122246.78906250       124079.78906250        11377.99316406 
       25403.07303352            1.00000000       338741.00000000        96937.18750000       122295.78125000       124135.78125000        11467.98730469 
       25414.57935595            1.00000000       337792.00000000        96641.18750000       122021.78125000       123798.78125000        11345.98730469 
       25424.38928786            1.00000000       337552.96875000        96506.17968750       121916.77343750       123618.78125000        11360.98242187 
       25431.64499077            1.00000000       337204.00000000        96419.18750000       121865.78125000       123519.78125000        11315.98730469 
       25442.60755311            1.00000000       337102.00000000        96172.18750000       121655.78125000       123113.78125000        11286.98730469 
       25453.15193929            1.00000000       335954.00000000        95956.19531250       121434.78906250       122679.78906250        11274.99316406 
       25461.27994536            1.00000000       336918.00000000        95990.18750000       121504.78125000       122455.78125000        11406.98730469 
       25474.26703311            1.00000000       334169.00000000        95434.18750000       120813.78125000       120985.78125000        11261.98730469 
       25482.83722004            1.00000000       336458.96875000        95724.17968750       121263.77343750       120552.78125000        11227.98242187 
       25483.69455686            1.00000000       336220.00000000        95826.18750000       121477.78125000       120741.78125000        11191.98730469 
       25484.26614688            1.00000000       336881.00000000        95850.18750000       121553.78125000       120752.78125000        11307.98730469 
       25484.98067058            1.00000000       336476.00000000        95807.18750000       121545.78125000       120627.78125000        11297.98730469 
       25485.83815207            1.00000000       336207.00000000        95775.18750000       121542.78125000       120603.78125000        11314.98730469 
       25486.55276420            1.00000000       335940.96875000        95724.17968750       121538.77343750       120430.78125000        11300.98242187 
       25487.83916732            1.00000000       335974.96875000        95740.17968750       121576.77343750       120377.78125000        11238.98242187 
       25488.83979313            1.00000000       335846.00000000        95701.18750000       121579.78125000       120076.78125000        11291.98730469 
       25490.26939529            1.00000000       335504.00000000        95658.18750000       121574.78125000       119897.78125000        11317.98730469 
       25491.55617477            1.00000000       335108.00000000        95618.19531250       121541.78906250       119508.78906250        11282.99316406 
       25493.12908222            1.00000000       337386.00000000        95952.18750000       122044.78125000       119759.78125000        11245.98730469 
       25494.27313720            1.00000000       337383.00000000        95977.18750000       122076.78125000       119395.78125000        11309.98730469 
       25495.56032217            1.00000000       336798.96875000        95894.17968750       122074.77343750       119082.78125000        11343.98242187 
       25496.99068061            1.00000000       336720.00000000        95905.18750000       122067.78125000       118503.78125000        11357.98730469 
       25498.13508327            1.00000000       336313.00000000        95819.18750000       122028.78125000       118057.78125000        11271.98730469 
       25499.42265943            1.00000000       336666.00000000        95783.18750000       122001.78125000       117279.78125000        11264.98730469 
       25500.42419773            1.00000000       336224.00000000        95812.18750000       122069.78125000       116842.78125000        11271.98730469 
       25501.99820309            1.00000000       336086.96875000        95766.17968750       122066.77343750       115350.78125000        11349.98242187 
       25502.85683361            1.00000000       335926.00000000        95711.18750000       122037.78125000       115185.78125000        11309.98730469 
       25504.14488814            1.00000000       335905.00000000        95705.18750000       122066.78125000       113976.78125000        11265.98730469 
       25505.00366366            1.00000000       335809.00000000        95663.18750000       122068.78125000       113130.78125000        11344.98730469 
       25506.00564176            1.00000000       335313.00000000        95622.18750000       122084.78125000       111746.78125000        11363.98730469 
       25507.15085628            1.00000000       335407.00000000        95583.18750000       122052.78125000       110152.78125000        11269.98730469 
       25508.15300360            1.00000000       335642.96875000        95574.17968750       122049.77343750       108823.78125000        11321.98242187 
       25509.01204989            1.00000000       335560.00000000        95555.18750000       122083.78125000       106645.78125000        11304.98730469 
       25510.01434391            1.00000000       335084.00000000        95522.18750000       122083.78125000       104884.78125000        11308.98730469 
       25510.73031658            1.00000000       335441.00000000        95538.18750000       122095.78125000       101660.78125000        11329.98730469 
       25511.73274605            1.00000000       334975.00000000        95458.18750000       122075.78125000        99510.78125000        11308.98730469 
       25512.44881548            1.00000000       334931.00000000        95434.18750000       122089.78125000        95904.78125000        11306.98730469 
       25513.30815201            1.00000000       334720.96875000        95420.17968750       122109.77343750        93176.78125000        11322.98242187 
       25513.88107529            1.00000000       334966.00000000        95340.18750000       122108.78125000        88722.78125000        11289.98730469 
       25514.74050861            1.00000000       334617.00000000        95335.18750000       122122.78125000        85860.78125000        11343.98730469 
       25515.31349642            1.00000000       334258.00000000        95292.18750000       122081.78125000        80305.78125000        11352.98730469 
       25516.17302653            1.00000000       334282.00000000        95236.18750000       122071.78125000        76711.78125000        11411.98730469 
       25516.88934600            1.00000000       334312.00000000        95206.18750000       122065.78125000        70367.78125000        11444.98730469 
       25517.89226102            1.00000000       333842.96875000        95154.17968750       121498.77343750        66697.78125000        11497.98242187 
       25518.60867731            1.00000000       333134.96875000        95065.17968750       121956.77343750        60363.77734375        11429.98242187 
       25519.75502731            1.00000000       333458.00000000        94972.18750000       121894.78125000        56692.78515625        11443.98730469 
       25520.90148061            1.00000000       333687.00000000        94959.19531250       121906.78906250        51376.79296875        11412.99316406 
       25522.19136408            1.00000000       333459.00000000        94960.18750000       121949.78125000        48396.78515625        11493.98730469 
       25523.48137833            1.00000000       332839.00000000        94947.18750000       121957.78125000        43959.78515625        11496.98730469 
       25524.48481319            1.00000000       332748.96875000        94909.17968750       121971.77343750        41968.77734375        11450.98242187 
       25526.06179929            1.00000000       333086.96875000        94948.17968750       122023.77343750        39304.77734375        11498.98242187 
       25527.20882103            1.00000000       332697.00000000        94915.18750000       122022.78125000        38307.78515625        11470.98730469 
       25528.78614477            1.00000000       332244.00000000        94880.18750000       122012.78125000        37524.78515625        11463.98730469 
       25529.78999804            1.00000000       332685.00000000        94842.18750000       122037.78125000        37466.78515625        11532.98730469 
       25531.36764175            1.00000000       332381.00000000        94794.18750000       122014.78125000        37695.78515625        11503.98730469 
       25532.22825712            1.00000000       332158.96875000        94772.17968750       122029.77343750        37985.77734375        11448.98242187 
       25533.08893068            1.00000000       331674.96875000        94713.17968750       122022.77343750        38419.77734375        11438.98242187 
       25534.09312340            1.00000000       331953.00000000        94700.18750000       122022.78125000        38786.78515625        11508.98730469 
       25535.38434474            1.00000000       331564.00000000        94688.18750000       122033.78125000        39419.78515625        11438.98730469 
       25536.10174653            1.00000000       331347.00000000        94648.19531250       122016.78906250        39785.79296875        11494.99316406 
       25537.10617697            1.00000000       331037.00000000        94602.18750000       122012.78125000        40386.78515625        11467.98730469 
       25537.96718042            1.00000000       331532.00000000        94614.18750000       122043.78125000        40662.78515625        11424.98730469 
       25538.54121508            1.00000000       330917.00000000        94558.18750000       122018.78125000        41010.78515625        11408.98730469 
       25539.40231560            1.00000000       330678.00000000        94552.18750000       122042.78125000        41625.78515625        11482.98730469 
       25539.97641497            1.00000000       330559.00000000        94518.18750000       122034.78125000        41125.78515625        11417.98730469 
       25540.69407558            1.00000000       330456.00000000        94510.18750000       122047.78125000        41039.78515625        11420.98730469 
       25541.26823321            1.00000000       330273.00000000        94433.18750000       122018.78125000        40710.78515625        11408.98730469 
       25542.12951819            1.00000000       329893.00000000        94420.18750000       122060.78125000        40467.78515625        11410.98730469 
       25542.70374054            1.00000000       330049.00000000        94430.18750000       122056.78125000        39791.78515625        11457.98730469 
       25544.13940974            1.02494600       338193.78125000        96776.82031250       125148.89843750        39641.24609375        11722.77441406 
       25545.28806165            1.04989200       346121.56250000        99066.45312500       128182.01562500        39281.69921875        11956.55664062 
       25547.29845184            1.07483799       353925.34375000       101352.08593750       131170.12500000        38413.15234375        12216.33886719 
       25549.45279356            1.09978399       362229.12500000       103673.71093750       134216.23437500        37696.60546875        12541.12011719 
       25551.60749974            1.12472999       370055.90625000       105927.34375000       137206.34375000        37843.05859375        12759.90234375 
       25553.47520665            1.14967599       378005.71875000       108230.97656250       140269.46875000        39170.51562500        13192.68945312 
       25555.34318744            1.17462199       386288.50000000       110548.60156250       143277.56250000        41521.96484375        13447.46582031 
       25557.21144218            1.19956799       394361.28125000       112821.23437500       146336.67187500        44582.41796875        13642.24804687 
       25559.36746120            1.22451398       403833.06250000       115237.86718750       149483.79687500        48035.87109375        13944.02929687 
       25561.38007484            1.24945998       411375.84375000       117537.49218750       152563.89062500        50693.31640625        14214.80664062 
       25563.10542529            1.27440598       419680.62500000       119869.13281250       155603.01562500        52331.78125000        14435.59863281 
       25565.40625599            1.29935198       427931.40625000       122106.75781250       158581.12500000        53104.23046875        14757.37500000 
       25567.41982366            1.32429798       435504.18750000       124409.38281250       161599.23437500        53294.68359375        15068.15722656 
       25569.00213574            1.34924397       443880.00000000       126730.01562500       164661.34375000        53462.13671875        15385.93945312 
       25570.72851843            1.37418997       451441.78125000       128897.64843750       167622.45312500        53521.58984375        15636.72070312 
       25572.16734930            1.39913597       459186.56250000       131151.28125000       170629.56250000        53639.04296875        15920.50292969 
       25573.89416074            1.42408197       467268.34375000       133375.90625000       173571.68750000        53752.49609375        16182.28417969 
       25576.48481652            1.44902797       477072.12500000       135706.53125000       176694.79687500        53655.94921875        16415.06640625 
       25578.64409853            1.47397397       484798.90625000       138022.17187500       179817.90625000        53684.40234375        16652.84765625 
       25581.81170704            1.49891996       495217.68750000       140500.79687500       183120.01562500        53022.85546875        17086.63085937 
       25585.12413923            1.52386596       504638.46875000       142913.42187500       186267.12500000        52286.30859375        17317.41210937 
       25587.86114528            1.54881196       513311.28125000       145134.06250000       189356.23437500        52924.76171875        17619.19335937 
       25590.74283888            1.57375796       522081.06250000       147426.68750000       192401.34375000        55365.21484375        17918.97656250 
       25592.90453634            1.59870396       530866.81250000       149859.31250000       195683.45312500        58388.66796875        18226.75781250 
       25595.64321237            1.62364995       538368.62500000       152013.95312500       198526.56250000        61967.12109375        18364.53906250 
       25596.94068517            1.64859595       546574.43750000       154358.57812500       201773.68750000        64240.57421875        18731.32226562 
       25598.95923844            1.67354195       554758.18750000       156620.20312500       204790.79687500        66307.02343750        18962.10351562 
       25600.54546861            1.69848795       562847.00000000       158862.84375000       207833.90625000        67645.47656250        19287.88476562 
       25603.43002867            1.72343395       570065.75000000       161098.46875000       210837.01562500        68399.92968750        19467.66796875 
       25606.89236148            1.74837995       577992.56250000       163196.09375000       213769.12500000        68295.38281250        19883.44921875 
       25610.49995705            1.77332594       586458.31250000       165465.73437500       216810.23437500        67909.83593750        20097.23046875 
       25613.67548462            1.79827194       594068.12500000       167606.35937500       219781.34375000        67773.28906250        20412.01171875 
       25616.70740693            1.82321794       602704.87500000       169876.98437500       222827.45312500        67962.74218750        20729.79492187 
       25619.45119515            1.84816394       609717.68750000       172054.62500000       225787.56250000        68327.19531250        20942.57617187 
       25622.62894969            1.87310994       619600.50000000       174454.25000000       229132.68750000        68793.64843750        21150.35742187 
       25625.51850366            1.89805593       629509.25000000       177225.87500000       232869.79687500        69524.10156250        21457.14062500 
       25627.68609814            1.92300193       638189.06250000       179532.51562500       236061.90625000        70315.55468750        21936.92187500 
       25629.85406047            1.94794793       645408.81250000       181807.14062500       239135.01562500        71299.00781250        22082.70312500 
       25632.16695914            1.97289393       653690.62500000       183979.76562500       242128.12500000        72587.46093750        22347.48632812 
       25634.62487280            1.99783993       660790.37500000       186007.40625000       244960.23437500        74290.91406250        22528.26757812 
       25638.09567355            2.02278593       668689.18750000       188124.03125000       247876.34375000        76347.36718750        22828.04882812 
       25641.85677164            2.04773192       678358.00000000       190468.65625000       251128.45312500        78380.82031250        23187.83203125 
       25645.61897669            2.07267792       687835.75000000       192798.29687500       254300.56250000        80093.27343750        23342.61328125 
       25648.65848922            2.09762392       696122.56250000       194967.92187500       257323.68750000        81385.72656250        23659.39453125 
       25651.84351562            2.12256992       704241.31250000       197130.56250000       260348.79687500        82325.17968750        23977.17773437 
       25654.45003649            2.14751592       712173.12500000       199264.18750000       263298.90625000        82886.63281250        24203.95898437 
       25656.62254310            2.17246191       720442.87500000       201552.81250000       266519.00000000        83379.08593750        24535.74023437 
       25659.51979271            2.19740791       728564.68750000       203681.45312500       269509.12500000        83597.53906250        24795.52343750 
       25662.70752540            2.22235391       735271.50000000       205735.07812500       272374.25000000        83916.00000000        24918.31054687 
       25666.76578885            2.24729991       743454.25000000       207759.70312500       275301.34375000        84569.44531250        25224.08203125 
       25669.95532765            2.27224591       750277.06250000       209874.34375000       278277.46875000        85557.89843750        25661.86914062 
       25673.29069571            2.29719191       758396.81250000       212133.95312500       281375.56250000        86784.35156250        25928.64453125 
       25676.77200674            2.32213790       764928.62500000       214112.59375000       284213.68750000        88081.80468750        26062.43164062 
       25680.39937950            2.34708390       773161.37500000       216219.23437500       287242.78125000        89597.25781250        26340.21289062 
       25683.88262457            2.37202990       779537.18750000       218196.85937500       290072.90625000        91002.71093750        26607.99609375 
       25686.78605284            2.39697590       787164.93750000       220198.48437500       292901.00000000        92292.16406250        26704.77734375 
       25689.98058448            2.42192190       791827.75000000       220546.12500000       293528.12500000        92908.62500000        26903.56445312 
       25693.61170156            2.44686789       794206.56250000       218982.75000000       291641.25000000        92891.07812500        26645.34570312 
       25697.97040127            2.47181389       783830.31250000       224938.37500000       299763.34375000        96078.52343750        27383.12304687 
       25702.47594947            2.49675989       815341.12500000       226388.01562500       301917.46875000        97238.97656250        27578.90429687 
       25706.54683908            2.52170589       823860.87500000       226285.64062500       301984.56250000        97562.42968750        27575.68750000 
       25710.32810912            2.54665189       831393.68750000       229524.28125000       306559.68750000        99174.89062500        27921.47460937 
       25713.23753769            2.57159789       839906.43750000       234468.90625000       313377.78125000       101331.33593750        28632.25000000 
       25716.29314856            2.59654388       848164.25000000       238469.53125000       319001.90625000       102876.78906250        29134.03320312 
       25720.51399931            2.62148988       855935.06250000       240327.15625000       321704.00000000       103170.24218750        29358.81445312 
       25725.60998057            2.64643588       870072.81250000       242420.79687500       324738.12500000       103567.69531250        29633.59570312 
       25729.83389959            2.67138188       879223.62500000       245049.42187500       328435.25000000       104535.14843750        29964.37890625 
       25733.91348649            2.69632788       888126.37500000       247109.04687500       331453.34375000       105484.60156250        30191.16015625 
       25738.28591255            2.72127387       895611.18750000       249118.68750000       334372.46875000       106542.06250000        30427.94140625 
       25742.36818827            2.74621987       903455.93750000       251215.31250000       337468.56250000       107832.50781250        30531.71875000 
       25744.99319430            2.77116587       911968.75000000       253321.93750000       340585.68750000       109242.96875000        31002.50585937 
       25748.93171026            2.79611187       918394.50000000       255306.56250000       343518.78125000       110917.41406250        31091.28320312 
       25753.30925686            2.82105787       924975.31250000       257153.20312500       346208.90625000       113016.87500000        31462.07031250 
       25757.98028566            2.84600387       933766.12500000       259299.82812500       349332.03125000       115298.32812500        31654.85156250 
       25762.36091886            2.87094986       940630.87500000       261214.46875000       352244.12500000       117246.78125000        31827.63281250 
       25766.88914343            2.89589586       948063.68750000       263111.09375000       355099.25000000       118793.23437500        32126.41406250 
       25770.39596232            2.92084186       956473.43750000       265350.71875000       358330.34375000       120156.67968750        32425.19140625 
       25773.61138743            2.94578786       964802.25000000       267496.34375000       361478.46875000       121393.14062500        32650.97851562 
       25778.28980628            2.97073386       970576.00000000       269321.96875000       364223.56250000       122403.58593750        32916.75390625 
       25783.11621020            2.99567985       978321.81250000       271320.62500000       367222.68750000       123390.04687500        33039.54296875 
       25787.06643458            3.02062585       991079.62500000       274352.25000000       371692.78125000       124659.50000000        33422.32421875 
       25791.74975431            3.04557185      1000572.37500000       276595.87500000       374920.90625000       125276.95312500        33767.10546875 
       25796.28834760            3.07051785      1006866.18750000       278458.50000000       377733.03125000       125769.40625000        33926.88671875 
       25800.68206027            3.09546385      1014177.93750000       280435.12500000       380751.12500000       126477.85156250        34349.66406250 
       25804.63768534            3.12040985      1021469.75000000       282412.78125000       383719.25000000       127272.31250000        34657.45312500 
       25809.47399053            3.14535584      1027720.50000000       284175.40625000       386472.34375000       128226.76562500        34591.23437500 
       25814.75203390            3.17030184      1038208.31250000       286273.03125000       389635.46875000       129741.21875000        34866.01562500 
       25820.32565126            3.19524784      1046346.06250000       288314.65625000       392668.56250000       131564.67187500        35369.79687500 
       25825.02109638            3.22019384      1054564.87500000       290411.28125000       395853.68750000       133561.12500000        35637.57812500 
       25828.98421065            3.24513984      1062109.62500000       292216.90625000       398688.78125000       135460.56250000        35707.35546875 
       25832.94854506            3.27008583      1069893.50000000       294197.56250000       401698.90625000       137382.03125000        36005.14453125 
       25838.97079469            3.29503183      1077547.25000000       295868.18750000       404330.03125000       139344.48437500        36013.92578125 
       25844.55490702            3.31997783      1084474.00000000       297772.81250000       407303.12500000       140947.93750000        36389.70703125 
       25849.70031038            3.34492383      1092451.75000000       299911.43750000       410498.21875000       142328.37500000        36768.48437500 
       25854.84776897            3.36986983      1099548.62500000       301702.06250000       413345.34375000       143477.84375000        36797.26953125 
       25859.26151308            3.39481583      1107993.37500000       303868.68750000       416702.46875000       144739.29687500        37098.05078125 
       25863.67676884            3.41976182      1113681.12500000       305644.34375000       419437.56250000       145877.75000000        37253.83593750 
       25868.68255376            3.44470782      1120157.00000000       307398.96875000       422271.68750000       147126.20312500        37505.62109375 
       25873.98491528            3.46965382      1128705.75000000       309413.59375000       425385.78125000       148345.65625000        37871.39843750 
       25879.87898552            3.49459982      1137709.50000000       311408.21875000       428444.90625000       149323.10937500        38088.17968750 
       25885.03850669            3.51954582      1144741.25000000       313179.84375000       431334.03125000       150197.56250000        38224.96093750 
       25889.02011873            3.54449181      1154148.12500000       315246.46875000       434607.12500000       151316.01562500        38671.74218750 
       25893.59311446            3.56943781      1158980.87500000       316961.12500000       437284.25000000       152279.46875000        38848.52734375 
       25899.34854005            3.59438381      1166108.62500000       318696.75000000       440121.34375000       153410.92187500        39002.30859375 
       25904.66351861            3.61932981      1172155.50000000       320555.37500000       442979.46875000       154695.37500000        39382.08984375 
       25909.83295683            3.64427581      1179264.25000000       322352.00000000       445883.56250000       156145.82812500        39589.87109375 
       25915.30004196            3.66922181      1185542.00000000       324179.62500000       448845.68750000       157827.28125000        39856.65234375 
       25920.03019814            3.69416780      1191469.75000000       326032.25000000       451816.78125000       159599.71875000        40022.42968750 
       25925.94532925            3.71911380      1197712.62500000       327621.90625000       454412.90625000       161689.18750000        40078.21484375 
       25932.15913173            3.74405980      1213890.37500000       330196.53125000       458488.03125000       164201.64062500        40531.00390625 
       25938.82009307            3.76900580      1218208.12500000       331865.15625000       461171.12500000       165784.09375000        40752.78125000 
       25944.15133361            3.79395180      1225090.87500000       333707.78125000       464215.25000000       167122.54687500        40892.56250000 
       25948.15120659            3.81889779      1230839.75000000       335572.40625000       467215.34375000       168364.00000000        41212.34375000 
       25954.22745364            3.84384379      1241139.50000000       338075.03125000       471166.46875000       169999.45312500        41499.12500000 
       25961.49305461            3.86878979      1251913.25000000       340198.68750000       474649.56250000       171447.90625000        41742.90625000 
       25967.13041165            3.89373579      1258187.12500000       341986.31250000       477554.68750000       172667.35937500        42057.69140625 
       25973.06712491            3.91868179      1264680.87500000       343820.93750000       480518.78125000       173868.81250000        42137.47265625 
       25977.81845606            3.94362779      1270718.62500000       345662.56250000       483565.90625000       175098.26562500        42440.25390625 
       25983.61149860            3.96857378      1276644.37500000       347257.18750000       486251.03125000       176190.71875000        42651.03515625 
       25989.55577304            3.99351978      1286687.25000000       349022.81250000       489297.12500000       177499.15625000        42860.81250000 
       25996.69250388            4.01846578      1291503.00000000       350653.46875000       491989.25000000       178769.62500000        43094.59765625 
       26002.49399276            4.04341178      1299455.75000000       352516.09375000       495036.34375000       180257.06250000        43334.37500000 
       26006.66076602            4.06835778      1306889.62500000       354318.71875000       497964.46875000       181729.53125000        43565.16406250 
       26012.16891390            4.09330377      1309123.37500000       354904.34375000       499275.56250000       182758.98437500        43718.94531250 
       26019.02014541            4.11824977      1316960.12500000       356418.96875000       501929.68750000       184402.43750000        43705.72656250 
       26024.98068083            4.14319577      1323296.87500000       358952.59375000       506003.78125000       186555.89062500        44156.50781250 
       26031.39131185            4.16814177      1328290.75000000       360677.25000000       508892.90625000       188280.34375000        44502.28906250 
       26036.76078819            4.19308777      1335204.50000000       362669.87500000       512177.03125000       190086.79687500        44654.07421875 
       26043.32649917            4.21803377      1338718.25000000       364016.50000000       514523.12500000       191586.25000000        44771.85546875 
       26050.49288154            4.24297976      1351352.12500000       366343.12500000       518401.25000000       193541.70312500        45245.63671875 
       26057.51379797            4.26792576      1355487.87500000       367868.75000000       521172.34375000       195019.15625000        45364.41796875 
       26063.19305902            4.29287176      1359778.62500000       369504.37500000       523947.46875000       196441.60937500        45474.19921875 
       26068.12706349            4.31781776      1363128.37500000       370586.03125000       526078.56250000       197582.06250000        45623.98046875 
       26076.35456896            4.34276376      1370127.25000000       372708.65625000       529608.68750000       199257.51562500        45965.76171875 
       26083.38947466            4.36770975      1377695.00000000       374884.28125000       533255.81250000       200916.96875000        46282.54687500 
       26089.52941683            4.39265575      1383217.75000000       376388.90625000       535899.93750000       202218.42187500        46558.32812500 
       26095.37254055            4.41760175      1388838.62500000       378034.53125000       538757.00000000       203585.87500000        46688.10937500 
       26101.51814253            4.44254775      1393055.37500000       379412.18750000       541234.12500000       204894.32812500        46879.89062500 
       26108.26665795            4.46749375      1403623.12500000       381031.81250000       544204.25000000       206484.78125000        47073.67187500 
       26115.61902268            4.49243975      1403734.87500000       376510.43750000       538275.37500000       204767.23437500        46502.45312500 
       26121.92435581            4.51738574      1391996.75000000       381085.06250000       545307.43750000       207971.68750000        47191.23828125 
       26127.03090999            4.54233174      1432896.50000000       388390.68750000       556324.56250000       212708.14062500        47983.01953125 
       26134.24357265            4.56727774      1442327.25000000       389948.31250000       559141.68750000       214382.59375000        48089.80078125 
       26141.15945630            4.59222374      1447613.12500000       391466.96875000       561924.81250000       216045.04687500        48251.58203125 
       26147.77808512            4.61716974      1452040.87500000       392934.59375000       564661.93750000       217728.50000000        48617.36328125 
       26153.64740758            4.64211573      1455821.62500000       394362.21875000       567240.00000000       219295.93750000        48800.14062500 
       26161.32666383            4.66706173      1457578.37500000       395377.84375000       569334.12500000       220757.39062500        48949.92187500 
       26168.70903395            4.69200773      1472003.25000000       398032.46875000       573782.25000000       223103.85937500        49213.71093750 
       26176.84954833            4.71695373      1480433.00000000       399815.09375000       576888.37500000       224856.31250000        49535.49218750 
       26182.73196826            4.74189973      1485782.75000000       401200.71875000       579579.43750000       226360.75000000        49773.26953125 
       26189.06984787            4.76684573      1489838.62500000       402634.37500000       582190.56250000       227859.21875000        49910.05859375 
       26197.37410681            4.79179172      1504227.37500000       405004.00000000       586243.68750000       229901.67187500        50136.83593750 
       26205.07914030            4.81673772      1511002.12500000       406517.62500000       589104.81250000       231484.12500000        50458.61718750 
       26211.42787574            4.84168372      1514395.87500000       407891.25000000       591853.93750000       232992.57812500        50634.40234375 
       26217.93096844            4.86662972      1520525.75000000       409588.87500000       594909.00000000       234657.03125000        50848.18359375 
       26225.34541544            4.89157572      1528661.50000000       411360.50000000       597966.12500000       236469.46875000        51245.96093750 
       26233.52131140            4.91652171      1535041.25000000       413012.15625000       601082.25000000       238309.93750000        51355.74609375 
       26240.64153135            4.94146771      1540759.00000000       414638.78125000       604068.37500000       240074.39062500        51297.52734375 
       26246.40113939            4.96641371      1546088.87500000       416213.40625000       606937.43750000       241823.84375000        51726.30859375 
       26253.37668988            4.99135971      1549831.62500000       417601.03125000       609675.56250000       243533.29687500        52015.09375000 
       26261.26657366            5.01630571      1554921.37500000       419020.65625000       612447.68750000       245314.75000000        52155.87500000 
       26268.70562522            5.04125171      1558038.25000000       420459.31250000       615158.81250000       247058.20312500        52313.65625000 
       26274.93338632            5.06619770      1563029.00000000       421969.93750000       618063.87500000       248824.65625000        52358.43359375 
       26283.90048513            5.09114370      1567533.75000000       423239.56250000       620711.00000000       250625.10937500        52618.21875000 
       26292.11304177            5.11608970      1577521.50000000       425391.18750000       624558.12500000       252891.56250000        52926.00000000 
       26299.87407243            5.14103570      1587562.37500000       427991.81250000       628969.25000000       255353.01562500        53287.78515625 
       26306.26896044            5.16598170      1591164.12500000       429017.43750000       631242.37500000       256877.46875000        53368.56640625 
       26314.49554332            5.19092769      1597789.87500000       430941.09375000       634822.43750000       259012.92187500        53715.34765625 
       26323.48974754            5.21587369      1604658.75000000       432537.71875000       637865.56250000       260908.37500000        53778.13281250 
       26330.35387968            5.24081969      1608845.50000000       433886.34375000       640550.68750000       262618.81250000        54035.91015625 
       26337.22160271            5.26576569      1611880.25000000       435270.96875000       643257.81250000       264284.28125000        54083.69140625 
       26345.92587785            5.29071169      1626721.00000000       437504.59375000       647325.93750000       266623.71875000        54679.47656250 
       26354.02450484            5.31565769      1634853.87500000       439119.21875000       650431.00000000       268605.18750000        54725.25781250 
       26361.82223866            5.34060368      1638314.62500000       440277.84375000       653044.12500000       270306.62500000        54803.03515625 
       26368.09436129            5.36554968      1642250.37500000       441273.50000000       655126.25000000       271841.09375000        55043.82031250 
       26376.05355508            5.39049568      1650477.25000000       442734.12500000       658096.37500000       273803.53125000        55119.60156250 
       26384.47717835            5.41544168      1654557.00000000       443931.75000000       660616.43750000       275595.00000000        55488.38281250 
       26391.52653514            5.44038768      1658739.75000000       445316.37500000       663280.56250000       277454.43750000        55687.16406250 
       26399.65330508            5.46533367      1660918.50000000       446341.00000000       665680.68750000       279181.90625000        55677.94921875 
       26409.16646476            5.49027967      1674047.37500000       448512.65625000       669571.81250000       281679.34375000        55986.73046875 
       26418.07209874            5.51522567      1676736.12500000       449640.28125000       672022.87500000       283502.81250000        56121.50781250 
       26424.83211581            5.54017167      1680888.87500000       450984.90625000       674734.00000000       285344.25000000        56319.29296875 
       26433.13324354            5.56511767      1684278.62500000       451840.53125000       676734.12500000       286996.71875000        56385.07421875 
       26442.97839230            5.59006367      1696284.50000000       453357.15625000       679938.25000000       289197.15625000        56494.85546875 
       26450.82901209            5.61500966      1701763.25000000       454639.78125000       682537.37500000       291042.62500000        56817.64062500 
       26457.75991261            5.63995566      1705905.00000000       455886.43750000       685004.43750000       292804.06250000        56870.42187500 
       26467.31512183            5.66490166      1719995.87500000       458649.06250000       690036.56250000       295777.53125000        57310.20312500 
       26476.10585806            5.68984766      1730328.62500000       459778.68750000       692460.68750000       297648.96875000        57591.98437500 
       26483.66748877            5.71479366      1735195.37500000       461633.31250000       696103.81250000       299970.43750000        57655.76562500 
       26490.92455238            5.73973965      1737689.12500000       462576.93750000       698322.93750000       301666.87500000        57652.54687500 
       26499.42192686            5.76468565      1745399.00000000       463846.56250000       701067.00000000       303647.34375000        57851.33203125 
       26508.38871849            5.78963165      1748375.75000000       464764.21875000       703241.12500000       305445.78125000        58112.11328125 
       26515.65937650            5.81457765      1749868.50000000       465730.84375000       705507.25000000       307185.25000000        58216.89453125 
       26525.87599085            5.83952365      1750949.37500000       466598.46875000       707548.37500000       308978.71875000        58500.67968750 
       26534.70578617            5.86446965      1767297.12500000       468902.09375000       711927.50000000       311802.15625000        58791.46093750 
       26543.54147831            5.88941564      1767619.87500000       469848.71875000       714208.56250000       313653.59375000        58933.23828125 
       26551.29694513            5.91436164      1766985.62500000       470772.34375000       716302.68750000       315450.06250000        58908.01562500 
       26560.92003783            5.93930764      1784804.50000000       473273.96875000       721027.81250000       318476.50000000        59372.79687500 
       26570.70550941            5.96425364      1786495.25000000       474271.62500000       723421.93750000       320460.96875000        59687.58593750 
       26577.38863478            5.98919964      1791149.00000000       475657.25000000       726199.00000000       322489.40625000        59585.36718750 
       26587.18628077            6.01414563      1790769.87500000       476126.87500000       727965.12500000       324176.87500000        59813.14453125 
       26596.21274225            6.03909163      1801500.62500000       477952.50000000       731598.25000000       326716.31250000        59940.92968750 
       26601.19549033            6.05216026      1802221.12500000       478341.15625000       732894.87500000       328022.03125000        60093.17968750 
