# 1-D Scan File created by LabVIEW Control Panel  10/29/2005  10:43:48 AM; Scan time 0 hrs 6 min 41 sec. 
#
# Beamline 20 BM 
#
# User Comment:
# gold foil reference
# N2 in I0, I1, I3 (ref)
# Ar in I2-IF
#
#
# Amplifier Sensitivities:
# Preslit: 500 pA/V  I0: 5 nA/V  I1: 2 nA/V  I3: 2 nA/V  I2-IF: 100 pA/V  
#
# Analog Input Voltages at start/end of scan:
# Preslit: 0.821/0.739  I0: 1.923/1.709  I1: 3.799/4.097  I3: 1.285/1.839  I2-IF: 1.240/1.419  
#
# Mono Info:
# 
#
# ID Info:
# 
#
# Motor Positions:
# 
#
# Detector Names/PVs:
# Preslit/pncbm:scaler1_netA.B  I0/pncbm:scaler1_netA.C  I1/pncbm:scaler1_netA.D  I2-IF/pncbm:scaler1_netA.F  I3/pncbm:scaler1_netA.E  
# As_SUM/pncaux:dxpCalc1.VAL  DXP12:0:As/pncaux:dxp_mca0.R0  DXP12:1:As/pncaux:dxp_mca1.R0  DXP12:2:As/pncaux:dxp_mca2.R0  DXP12:3:As/pncaux:dxp_mca3.R0  
# DXP12:4:As/pncaux:dxp_mca4.R0  DXP12:5:As/pncaux:dxp_mca5.R0  DXP12:6:As/pncaux:dxp_mca6.R0  DXP12:7:As/pncaux:dxp_mca7.R0  DXP12:8:As/pncaux:dxp_mca8.R0  
# DXP12:9:As/pncaux:dxp_mca9.R0  DXP12:10:As/pncaux:dxp_mca10.R0  DXP12:11:As/pncaux:dxp_mca11.R0  
#
# Positioner names/Drive PVs/Readback PVs:
# Mono Energy */pncbm:monoE.VAL/pncbm:EnctoE.VAL  Scaler preset time */pncbm:scaler1.TP/  
#
# Column Headings:
#Mono Energy *        Scaler preset time * Preslit              I0                   I1                   I2-IF                I3                   As_SUM               DXP12:0:As           DXP12:1:As           DXP12:2:As           DXP12:3:As           DXP12:4:As           DXP12:5:As           DXP12:6:As           DXP12:7:As           DXP12:8:As           DXP12:9:As           DXP12:10:As          DXP12:11:As          
       11719.75266445            1.00000000        72896.78906250       187381.39062500       359985.78125000       109667.39062500       250171.98437500         1483.00000000          140.00000000          123.00000000           67.00000000          151.00000000          186.00000000          189.00000000          152.00000000          149.00000000          126.00000000          147.00000000           91.00000000          148.00000000 
       11729.92053170            1.00000000        72934.78125000       187782.39062500       361639.78125000       110940.39062500       252023.98437500         1483.00000000          140.00000000          123.00000000           67.00000000          151.00000000          186.00000000          189.00000000          152.00000000          149.00000000          126.00000000          147.00000000           91.00000000          148.00000000 
       11739.47667385            1.00000000        72962.78125000       187860.39062500       362917.78125000       111255.39062500       253465.98437500         1483.00000000          140.00000000          123.00000000           67.00000000          151.00000000          186.00000000          189.00000000          152.00000000          149.00000000          126.00000000          147.00000000           91.00000000          148.00000000 
       11749.88955444            1.00000000        72752.78125000       187647.39062500       363456.78125000       111456.39062500       254532.98437500         1483.00000000          140.00000000          123.00000000           67.00000000          151.00000000          186.00000000          189.00000000          152.00000000          149.00000000          126.00000000          147.00000000           91.00000000          148.00000000 
       11760.05039503            1.00000000        72822.78125000       187766.39062500       364615.78125000       112252.39062500       256031.98437500         1483.00000000          140.00000000          123.00000000           67.00000000          151.00000000          186.00000000          189.00000000          152.00000000          149.00000000          126.00000000          147.00000000           91.00000000          148.00000000 
       11769.59615612            1.00000000        72679.78125000       187495.39062500       364996.78125000       112139.39062500       256880.98437500         1483.00000000          140.00000000          123.00000000           67.00000000          151.00000000          186.00000000          189.00000000          152.00000000          149.00000000          126.00000000          147.00000000           91.00000000          148.00000000 
       11780.30488315            1.00000000        72577.78125000       187183.39062500       365472.78125000       111424.39062500       257856.98437500         1483.00000000          140.00000000          123.00000000           67.00000000          151.00000000          186.00000000          189.00000000          152.00000000          149.00000000          126.00000000          147.00000000           91.00000000          148.00000000 
       11789.64210647            1.00000000        72453.78125000       187358.39062500       366770.78125000       112988.39062500       259277.98437500         1483.00000000          140.00000000          123.00000000           67.00000000          151.00000000          186.00000000          189.00000000          152.00000000          149.00000000          126.00000000          147.00000000           91.00000000          148.00000000 
       11799.63049396            1.00000000        72379.78125000       186965.39062500       366847.78125000       112611.39062500       260090.98437500         1483.00000000          140.00000000          123.00000000           67.00000000          151.00000000          186.00000000          189.00000000          152.00000000          149.00000000          126.00000000          147.00000000           91.00000000          148.00000000 
       11809.96988104            1.00000000        72094.78125000       185384.39062500       364842.78125000       112629.39062500       259304.98437500         1483.00000000          140.00000000          123.00000000           67.00000000          151.00000000          186.00000000          189.00000000          152.00000000          149.00000000          126.00000000          147.00000000           91.00000000          148.00000000 
       11819.81085865            1.00000000        72124.78125000       186025.39062500       367230.78125000       113270.39062500       261477.98437500         1483.00000000          140.00000000          123.00000000           67.00000000          151.00000000          186.00000000          189.00000000          152.00000000          149.00000000          126.00000000          147.00000000           91.00000000          148.00000000 
       11829.69893769            1.00000000        72097.78125000       185955.39062500       367989.78125000       113279.39062500       262606.96875000         1483.00000000          140.00000000          123.00000000           67.00000000          151.00000000          186.00000000          189.00000000          152.00000000          149.00000000          126.00000000          147.00000000           91.00000000          148.00000000 
       11839.96985354            1.00000000        71860.78125000       185539.39062500       368034.78125000       113676.39062500       263283.96875000         1483.00000000          140.00000000          123.00000000           67.00000000          151.00000000          186.00000000          189.00000000          152.00000000          149.00000000          126.00000000          147.00000000           91.00000000          148.00000000 
       11849.89219025            1.00000000        71814.78125000       185273.39062500       368490.78125000       113728.39062500       264007.96875000         1483.00000000          140.00000000          123.00000000           67.00000000          151.00000000          186.00000000          189.00000000          152.00000000          149.00000000          126.00000000          147.00000000           91.00000000          148.00000000 
       11859.61715648            1.00000000        71492.78125000       184393.39062500       367596.78125000       113894.39062500       263831.96875000         1483.00000000          140.00000000          123.00000000           67.00000000          151.00000000          186.00000000          189.00000000          152.00000000          149.00000000          126.00000000          147.00000000           91.00000000          148.00000000 
       11869.91019908            1.00000000        71443.78125000       184660.39062500       369090.78125000       114398.39062500       265129.96875000         1483.00000000          140.00000000          123.00000000           67.00000000          151.00000000          186.00000000          189.00000000          152.00000000          149.00000000          126.00000000          147.00000000           91.00000000          148.00000000 
       11879.69924656            1.00000000        71388.78125000       184304.39062500       369317.78125000       114627.39062500       265230.96875000         1483.00000000          140.00000000          123.00000000           67.00000000          151.00000000          186.00000000          189.00000000          152.00000000          149.00000000          126.00000000          147.00000000           91.00000000          148.00000000 
       11889.87386083            1.00000000        71124.78125000       183624.39062500       368885.78125000       113688.39062500       264377.96875000         1483.00000000          140.00000000          123.00000000           67.00000000          151.00000000          186.00000000          189.00000000          152.00000000          149.00000000          126.00000000          147.00000000           91.00000000          148.00000000 
       11890.33536476            1.00000000        71151.78125000       183797.39062500       369290.78125000       114934.39062500       264622.96875000         1483.00000000          140.00000000          123.00000000           67.00000000          151.00000000          186.00000000          189.00000000          152.00000000          149.00000000          126.00000000          147.00000000           91.00000000          148.00000000 
       11890.67382408            1.00000000        71168.78906250       183794.39062500       369329.78125000       114936.39062500       264595.00000000         1483.00000000          140.00000000          123.00000000           67.00000000          151.00000000          186.00000000          189.00000000          152.00000000          149.00000000          126.00000000          147.00000000           91.00000000          148.00000000 
       11891.07384664            1.00000000        71210.78125000       183988.39062500       369742.78125000       115074.39062500       264849.96875000         1483.00000000          140.00000000          123.00000000           67.00000000          151.00000000          186.00000000          189.00000000          152.00000000          149.00000000          126.00000000          147.00000000           91.00000000          148.00000000 
       11891.56621958            1.00000000        71211.78125000       183930.39062500       369631.78125000       115096.39062500       264687.96875000         1483.00000000          140.00000000          123.00000000           67.00000000          151.00000000          186.00000000          189.00000000          152.00000000          149.00000000          126.00000000          147.00000000           91.00000000          148.00000000 
       11892.15096616            1.00000000        71201.78906250       183986.39062500       369806.78125000       115141.39062500       264641.00000000         1483.00000000          140.00000000          123.00000000           67.00000000          151.00000000          186.00000000          189.00000000          152.00000000          149.00000000          126.00000000          147.00000000           91.00000000          148.00000000 
       11892.76655189            1.00000000        71173.78125000       183992.39062500       369800.78125000       115199.39062500       264694.96875000         1483.00000000          140.00000000          123.00000000           67.00000000          151.00000000          186.00000000          189.00000000          152.00000000          149.00000000          126.00000000          147.00000000           91.00000000          148.00000000 
       11893.32063431            1.00000000        71171.78125000       183811.39062500       369540.78125000       114945.39062500       264349.96875000         1483.00000000          140.00000000          123.00000000           67.00000000          151.00000000          186.00000000          189.00000000          152.00000000          149.00000000          126.00000000          147.00000000           91.00000000          148.00000000 
       11893.99791728            1.00000000        71121.78906250       183754.39062500       369496.78125000       114661.39062500       264285.00000000         1483.00000000          140.00000000          123.00000000           67.00000000          151.00000000          186.00000000          189.00000000          152.00000000          149.00000000          126.00000000          147.00000000           91.00000000          148.00000000 
       11894.52132589            1.00000000        71142.78906250       183926.39062500       369824.78125000       115050.39062500       264367.00000000         1483.00000000          140.00000000          123.00000000           67.00000000          151.00000000          186.00000000          189.00000000          152.00000000          149.00000000          126.00000000          147.00000000           91.00000000          148.00000000 
       11895.01398843            1.00000000        71165.78125000       183768.39062500       369573.78125000       114777.39062500       264121.96875000         1483.00000000          140.00000000          123.00000000           67.00000000          151.00000000          186.00000000          189.00000000          152.00000000          149.00000000          126.00000000          147.00000000           91.00000000          148.00000000 
       11895.41430723            1.00000000        71179.78906250       183514.39062500       369042.78125000       114246.39062500       263742.00000000         1483.00000000          140.00000000          123.00000000           67.00000000          151.00000000          186.00000000          189.00000000          152.00000000          149.00000000          126.00000000          147.00000000           91.00000000          148.00000000 
       11895.81465335            1.00000000        71084.78125000       183436.39062500       368949.78125000       113659.39062500       263509.96875000         1483.00000000          140.00000000          123.00000000           67.00000000          151.00000000          186.00000000          189.00000000          152.00000000          149.00000000          126.00000000          147.00000000           91.00000000          148.00000000 
       11896.18422788            1.00000000        71119.78906250       183415.39062500       368981.78125000       113837.39062500       263432.00000000         1483.00000000          140.00000000          123.00000000           67.00000000          151.00000000          186.00000000          189.00000000          152.00000000          149.00000000          126.00000000          147.00000000           91.00000000          148.00000000 
       11896.55382570            1.00000000        71180.78125000       183520.39062500       369164.78125000       114133.39062500       263472.96875000         1483.00000000          140.00000000          123.00000000           67.00000000          151.00000000          186.00000000          189.00000000          152.00000000          149.00000000          126.00000000          147.00000000           91.00000000          148.00000000 
       11897.01585572            1.00000000        71147.78125000       183692.39062500       369673.78125000       114733.39062500       263754.96875000         1483.00000000          140.00000000          123.00000000           67.00000000          151.00000000          186.00000000          189.00000000          152.00000000          149.00000000          126.00000000          147.00000000           91.00000000          148.00000000 
       11897.63195238            1.00000000        71122.78125000       184025.39062500       370229.78125000       115393.39062500       264075.96875000         1483.00000000          140.00000000          123.00000000           67.00000000          151.00000000          186.00000000          189.00000000          152.00000000          149.00000000          126.00000000          147.00000000           91.00000000          148.00000000 
       11898.24811376            1.00000000        71208.77343750       184125.37500000       370549.78125000       115547.38281250       264008.96875000         1483.00000000          140.00000000          123.00000000           67.00000000          151.00000000          186.00000000          189.00000000          152.00000000          149.00000000          126.00000000          147.00000000           91.00000000          148.00000000 
       11898.83352703            1.00000000        71140.78125000       184020.39062500       370369.78125000       115544.39062500       263832.96875000         1483.00000000          140.00000000          123.00000000           67.00000000          151.00000000          186.00000000          189.00000000          152.00000000          149.00000000          126.00000000          147.00000000           91.00000000          148.00000000 
       11899.35736737            1.00000000        71217.78906250       184053.39062500       370587.78125000       115553.39062500       263734.00000000         1483.00000000          140.00000000          123.00000000           67.00000000          151.00000000          186.00000000          189.00000000          152.00000000          149.00000000          126.00000000          147.00000000           91.00000000          148.00000000 
       11900.00452885            1.00000000        71051.78125000       183762.39062500       369978.78125000       115260.39062500       263130.96875000         1483.00000000          140.00000000          123.00000000           67.00000000          151.00000000          186.00000000          189.00000000          152.00000000          149.00000000          126.00000000          147.00000000           91.00000000          148.00000000 
       11900.52847376            1.00000000        71111.79687500       183887.39062500       370235.81250000       115474.39843750       263058.00000000         1483.00000000          140.00000000          123.00000000           67.00000000          151.00000000          186.00000000          189.00000000          152.00000000          149.00000000          126.00000000          147.00000000           91.00000000          148.00000000 
       11901.17576445            1.00000000        71079.78125000       183773.39062500       370108.78125000       115296.39062500       262806.96875000         1483.00000000          140.00000000          123.00000000           67.00000000          151.00000000          186.00000000          189.00000000          152.00000000          149.00000000          126.00000000          147.00000000           91.00000000          148.00000000 
       11901.66898623            1.00000000        71084.78125000       183827.39062500       370205.78125000       115462.39062500       262673.96875000         1483.00000000          140.00000000          123.00000000           67.00000000          151.00000000          186.00000000          189.00000000          152.00000000          149.00000000          126.00000000          147.00000000           91.00000000          148.00000000 
       11902.16224948            1.00000000        71086.78906250       183760.39062500       370230.78125000       115456.39062500       262453.00000000         1483.00000000          140.00000000          123.00000000           67.00000000          151.00000000          186.00000000          189.00000000          152.00000000          149.00000000          126.00000000          147.00000000           91.00000000          148.00000000 
       11902.56305641            1.00000000        71063.78906250       183609.39062500       369974.78125000       115229.39062500       262061.98437500         1483.00000000          140.00000000          123.00000000           67.00000000          151.00000000          186.00000000          189.00000000          152.00000000          149.00000000          126.00000000          147.00000000           91.00000000          148.00000000 
       11902.90222212            1.00000000        70990.78125000       183218.39062500       369293.78125000       115169.39062500       261393.98437500         1483.00000000          140.00000000          123.00000000           67.00000000          151.00000000          186.00000000          189.00000000          152.00000000          149.00000000          126.00000000          147.00000000           91.00000000          148.00000000 
       11903.27224343            1.00000000        70896.78906250       182728.39062500       368188.78125000       114943.39062500       260347.98437500         1483.00000000          140.00000000          123.00000000           67.00000000          151.00000000          186.00000000          189.00000000          152.00000000          149.00000000          126.00000000          147.00000000           91.00000000          148.00000000 
       11903.73480287            1.00000000        70821.78125000       182106.39062500       367000.78125000       114784.39062500       259305.98437500         1483.00000000          140.00000000          123.00000000           67.00000000          151.00000000          186.00000000          189.00000000          152.00000000          149.00000000          126.00000000          147.00000000           91.00000000          148.00000000 
       11904.25908099            1.00000000        70740.78906250       181742.39062500       366253.78125000       114716.39062500       258379.98437500         1483.00000000          140.00000000          123.00000000           67.00000000          151.00000000          186.00000000          189.00000000          152.00000000          149.00000000          126.00000000          147.00000000           91.00000000          148.00000000 
       11904.81425006            1.00000000        70700.78125000       181803.39062500       366359.78125000       114684.39062500       258164.98437500         1483.00000000          140.00000000          123.00000000           67.00000000          151.00000000          186.00000000          189.00000000          152.00000000          149.00000000          126.00000000          147.00000000           91.00000000          148.00000000 
       11905.33862462            1.00000000        70693.78125000       182572.39062500       367926.78125000       115278.39062500       258865.98437500         1483.00000000          140.00000000          123.00000000           67.00000000          151.00000000          186.00000000          189.00000000          152.00000000          149.00000000          126.00000000          147.00000000           91.00000000          148.00000000 
       11905.92474574            1.00000000        70725.78906250       183284.39062500       369500.78125000       115555.39062500       259566.98437500         1483.00000000          140.00000000          123.00000000           67.00000000          151.00000000          186.00000000          189.00000000          152.00000000          149.00000000          126.00000000          147.00000000           91.00000000          148.00000000 
       11906.44921953            1.00000000        70667.78125000       183533.39062500       370095.78125000       115693.39062500       259485.98437500         1483.00000000          140.00000000          123.00000000           67.00000000          151.00000000          186.00000000          189.00000000          152.00000000          149.00000000          126.00000000          147.00000000           91.00000000          148.00000000 
       11907.00459579            1.00000000        70714.78125000       183436.39062500       369885.78125000       115399.39062500       258943.98437500         1483.00000000          140.00000000          123.00000000           67.00000000          151.00000000          186.00000000          189.00000000          152.00000000          149.00000000          126.00000000          147.00000000           91.00000000          148.00000000 
       11907.46744948            1.00000000        70829.78906250       183414.39062500       370055.78125000       115710.39062500       258481.98437500         1483.00000000          140.00000000          123.00000000           67.00000000          151.00000000          186.00000000          189.00000000          152.00000000          149.00000000          126.00000000          147.00000000           91.00000000          148.00000000 
       11907.86861887            1.00000000        70899.78906250       183363.39062500       369891.78125000       115527.39062500       257854.98437500         1483.00000000          140.00000000          123.00000000           67.00000000          151.00000000          186.00000000          189.00000000          152.00000000          149.00000000          126.00000000          147.00000000           91.00000000          148.00000000 
       11908.23895341            1.00000000        70897.78125000       183382.39062500       369999.78125000       115633.39062500       257474.98437500         1483.00000000          140.00000000          123.00000000           67.00000000          151.00000000          186.00000000          189.00000000          152.00000000          149.00000000          126.00000000          147.00000000           91.00000000          148.00000000 
       11908.57844726            1.00000000        70968.78906250       183369.39062500       370046.78125000       115532.39062500       257018.98437500         1483.00000000          140.00000000          123.00000000           67.00000000          151.00000000          186.00000000          189.00000000          152.00000000          149.00000000          126.00000000          147.00000000           91.00000000          148.00000000 
       11908.97969257            1.00000000        70951.78125000       183311.39062500       369945.78125000       115611.39062500       256456.98437500         1483.00000000          140.00000000          123.00000000           67.00000000          151.00000000          186.00000000          189.00000000          152.00000000          149.00000000          126.00000000          147.00000000           91.00000000          148.00000000 
       11909.44270201            1.00000000        70960.78906250       183358.39062500       369982.78125000       115664.39062500       255902.98437500         1483.00000000          140.00000000          123.00000000           67.00000000          151.00000000          186.00000000          189.00000000          152.00000000          149.00000000          126.00000000          147.00000000           91.00000000          148.00000000 
       11909.90574796            1.00000000        70895.78125000       183165.39062500       369792.78125000       115642.39062500       255003.98437500         1483.00000000          140.00000000          123.00000000           67.00000000          151.00000000          186.00000000          189.00000000          152.00000000          149.00000000          126.00000000          147.00000000           91.00000000          148.00000000 
       11910.46145131            1.00000000        70839.78125000       182802.39062500       368969.78125000       115180.39062500       253582.98437500         1483.00000000          140.00000000          123.00000000           67.00000000          151.00000000          186.00000000          189.00000000          152.00000000          149.00000000          126.00000000          147.00000000           91.00000000          148.00000000 
       11911.01720725            1.00000000        70777.78906250       182257.39062500       367946.78125000       115270.39062500       251678.98437500         1483.00000000          140.00000000          123.00000000           67.00000000          151.00000000          186.00000000          189.00000000          152.00000000          149.00000000          126.00000000          147.00000000           91.00000000          148.00000000 
       11911.54213617            1.00000000        70614.78125000       181291.39062500       366128.78125000       114736.39062500       249291.98437500         1483.00000000          140.00000000          123.00000000           67.00000000          151.00000000          186.00000000          189.00000000          152.00000000          149.00000000          126.00000000          147.00000000           91.00000000          148.00000000 
       11912.19064255            1.00000000        70615.78125000       181267.39062500       366063.78125000       114902.39062500       247556.98437500         1483.00000000          140.00000000          123.00000000           67.00000000          151.00000000          186.00000000          189.00000000          152.00000000          149.00000000          126.00000000          147.00000000           91.00000000          148.00000000 
       11912.71567636            1.00000000        70527.78906250       181937.39062500       367457.78125000       115009.39062500       246888.98437500         1483.00000000          140.00000000          123.00000000           67.00000000          151.00000000          186.00000000          189.00000000          152.00000000          149.00000000          126.00000000          147.00000000           91.00000000          148.00000000 
       11913.30253441            1.00000000        70499.78906250       182596.39062500       368913.78125000       115261.39062500       246062.98437500         1483.00000000          140.00000000          123.00000000           67.00000000          151.00000000          186.00000000          189.00000000          152.00000000          149.00000000          126.00000000          147.00000000           91.00000000          148.00000000 
       11913.82766763            1.00000000        70522.78125000       183102.39062500       369885.78125000       115340.39062500       244875.98437500         1483.00000000          140.00000000          123.00000000           67.00000000          151.00000000          186.00000000          189.00000000          152.00000000          149.00000000          126.00000000          147.00000000           91.00000000          148.00000000 
       11914.35284781            1.00000000        70569.78125000       183229.39062500       370184.78125000       115451.39062500       243017.98437500         1483.00000000          140.00000000          123.00000000           67.00000000          151.00000000          186.00000000          189.00000000          152.00000000          149.00000000          126.00000000          147.00000000           91.00000000          148.00000000 
       11914.75448786            1.00000000        70658.78125000       183383.39062500       370536.78125000       115565.39062500       241241.98437500         1483.00000000          140.00000000          123.00000000           67.00000000          151.00000000          186.00000000          189.00000000          152.00000000          149.00000000          126.00000000          147.00000000           91.00000000          148.00000000 
       11915.15615538            1.00000000        70747.78125000       183390.39062500       370624.78125000       115680.39062500       238921.98437500         1483.00000000          140.00000000          123.00000000           67.00000000          151.00000000          186.00000000          189.00000000          152.00000000          149.00000000          126.00000000          147.00000000           91.00000000          148.00000000 
       11915.52694977            1.00000000        70791.78906250       183367.39062500       370594.78125000       115702.39062500       236147.98437500         1483.00000000          140.00000000          123.00000000           67.00000000          151.00000000          186.00000000          189.00000000          152.00000000          149.00000000          126.00000000          147.00000000           91.00000000          148.00000000 
       11915.95957281            1.00000000        70905.78906250       183470.39062500       370887.78125000       115920.39062500       232405.98437500         1483.00000000          140.00000000          123.00000000           67.00000000          151.00000000          186.00000000          189.00000000          152.00000000          149.00000000          126.00000000          147.00000000           91.00000000          148.00000000 
       11916.51584926            1.00000000        70879.78125000       183300.39062500       370564.78125000       115795.39062500       226914.98437500         1483.00000000          140.00000000          123.00000000           67.00000000          151.00000000          186.00000000          189.00000000          152.00000000          149.00000000          126.00000000          147.00000000           91.00000000          148.00000000 
       11917.07217837            1.00000000        70879.78906250       183327.39062500       370653.78125000       115833.39062500       220842.98437500         1483.00000000          140.00000000          123.00000000           67.00000000          151.00000000          186.00000000          189.00000000          152.00000000          149.00000000          126.00000000          147.00000000           91.00000000          148.00000000 
       11917.72129559            1.00000000        70948.78125000       183322.39062500       370725.78125000       115736.39062500       212462.98437500         1483.00000000          140.00000000          123.00000000           67.00000000          151.00000000          186.00000000          189.00000000          152.00000000          149.00000000          126.00000000          147.00000000           91.00000000          148.00000000 
       11918.37048453            1.00000000        70860.79687500       183009.39062500       370136.81250000       115354.39843750       202854.00000000         1483.00000000          140.00000000          123.00000000           67.00000000          151.00000000          186.00000000          189.00000000          152.00000000          149.00000000          126.00000000          147.00000000           91.00000000          148.00000000 
       11918.92698929            1.00000000        70833.78125000       183126.39062500       370419.78125000       115707.39062500       193896.98437500         1483.00000000          140.00000000          123.00000000           67.00000000          151.00000000          186.00000000          189.00000000          152.00000000          149.00000000          126.00000000          147.00000000           91.00000000          148.00000000 
       11919.45262551            1.00000000        70851.78125000       183241.39062500       370673.78125000       115891.39062500       184448.98437500         1483.00000000          140.00000000          123.00000000           67.00000000          151.00000000          186.00000000          189.00000000          152.00000000          149.00000000          126.00000000          147.00000000           91.00000000          148.00000000 
       11919.85461434            1.00000000        70866.78906250       183188.39062500       370700.78125000       115934.39062500       176201.98437500         1483.00000000          140.00000000          123.00000000           67.00000000          151.00000000          186.00000000          189.00000000          152.00000000          149.00000000          126.00000000          147.00000000           91.00000000          148.00000000 
       11920.25663068            1.00000000        70898.78125000       183202.39062500       370750.78125000       115744.39062500       168830.98437500         1483.00000000          140.00000000          123.00000000           67.00000000          151.00000000          186.00000000          189.00000000          152.00000000          149.00000000          126.00000000          147.00000000           91.00000000          148.00000000 
       11920.59681983            1.00000000        70880.79687500       183263.39062500       370844.81250000       115921.39843750       163302.00000000         1483.00000000          140.00000000          123.00000000           67.00000000          151.00000000          186.00000000          189.00000000          152.00000000          149.00000000          126.00000000          147.00000000           91.00000000          148.00000000 
       11920.99888694            1.00000000        70901.78906250       183221.39062500       370826.78125000       115961.39062500       158001.98437500         1483.00000000          140.00000000          123.00000000           67.00000000          151.00000000          186.00000000          189.00000000          152.00000000          149.00000000          126.00000000          147.00000000           91.00000000          148.00000000 
       11921.40098155            1.00000000        70920.78906250       183309.39062500       371066.78125000       116055.39062500       153526.98437500         1483.00000000          140.00000000          123.00000000           67.00000000          151.00000000          186.00000000          189.00000000          152.00000000          149.00000000          126.00000000          147.00000000           91.00000000          148.00000000 
       11921.86497106            1.00000000        70860.78906250       183328.39062500       371085.78125000       115783.39062500       149477.98437500         1483.00000000          140.00000000          123.00000000           67.00000000          151.00000000          186.00000000          189.00000000          152.00000000          149.00000000          126.00000000          147.00000000           91.00000000          148.00000000 
       11922.48368072            1.00000000        70860.78125000       183088.39062500       370680.78125000       115995.39062500       145282.98437500         1483.00000000          140.00000000          123.00000000           67.00000000          151.00000000          186.00000000          189.00000000          152.00000000          149.00000000          126.00000000          147.00000000           91.00000000          148.00000000 
       11923.13339596            1.00000000        70653.78906250       182600.39062500       369745.78125000       115523.39062500       142054.98437500         1483.00000000          140.00000000          123.00000000           67.00000000          151.00000000          186.00000000          189.00000000          152.00000000          149.00000000          126.00000000          147.00000000           91.00000000          148.00000000 
       11923.78318302            1.00000000        70660.78906250       182637.39062500       369889.78125000       115496.39062500       140347.98437500         1483.00000000          140.00000000          123.00000000           67.00000000          151.00000000          186.00000000          189.00000000          152.00000000          149.00000000          126.00000000          147.00000000           91.00000000          148.00000000 
       11924.40209462            1.00000000        70665.78906250       182601.39062500       369849.78125000       115552.39062500       139527.98437500         1483.00000000          140.00000000          123.00000000           67.00000000          151.00000000          186.00000000          189.00000000          152.00000000          149.00000000          126.00000000          147.00000000           91.00000000          148.00000000 
       11924.92822071            1.00000000        71067.78906250       183603.39062500       371892.78125000       116291.39062500       140074.98437500         1483.00000000          140.00000000          123.00000000           67.00000000          151.00000000          186.00000000          189.00000000          152.00000000          149.00000000          126.00000000          147.00000000           91.00000000          148.00000000 
       11925.51629971            1.00000000        71017.78125000       183555.39062500       371892.78125000       116308.39062500       140054.98437500         1483.00000000          140.00000000          123.00000000           67.00000000          151.00000000          186.00000000          189.00000000          152.00000000          149.00000000          126.00000000          147.00000000           91.00000000          148.00000000 
       11926.04252551            1.00000000        71036.78906250       183591.39062500       371976.78125000       116412.39062500       140150.98437500         1483.00000000          140.00000000          123.00000000           67.00000000          151.00000000          186.00000000          189.00000000          152.00000000          149.00000000          126.00000000          147.00000000           91.00000000          148.00000000 
       11926.56879842            1.00000000        70981.78125000       183349.39062500       371642.78125000       116436.39062500       140015.98437500         1483.00000000          140.00000000          123.00000000           67.00000000          151.00000000          186.00000000          189.00000000          152.00000000          149.00000000          126.00000000          147.00000000           91.00000000          148.00000000 
       11927.00223501            1.00000000        70950.79687500       183141.39062500       371213.81250000       116197.39843750       139791.00000000         1483.00000000          140.00000000          123.00000000           67.00000000          151.00000000          186.00000000          189.00000000          152.00000000          149.00000000          126.00000000          147.00000000           91.00000000          148.00000000 
       11927.37377751            1.00000000        70948.78125000       182982.39062500       370989.78125000       115995.39062500       139518.98437500         1483.00000000          140.00000000          123.00000000           67.00000000          151.00000000          186.00000000          189.00000000          152.00000000          149.00000000          126.00000000          147.00000000           91.00000000          148.00000000 
       11927.71437876            1.00000000        70942.78125000       182876.39062500       370712.78125000       115886.39062500       139122.98437500         1483.00000000          140.00000000          123.00000000           67.00000000          151.00000000          186.00000000          189.00000000          152.00000000          149.00000000          126.00000000          147.00000000           91.00000000          148.00000000 
       11928.08596626            1.00000000        70970.78125000       183019.39062500       371062.78125000       115631.39062500       138726.98437500         1483.00000000          140.00000000          123.00000000           67.00000000          151.00000000          186.00000000          189.00000000          152.00000000          149.00000000          126.00000000          147.00000000           91.00000000          148.00000000 
       11928.55048366            1.00000000        70955.78125000       183289.39062500       371563.78125000       115715.39062500       138150.98437500         1483.00000000          140.00000000          123.00000000           67.00000000          151.00000000          186.00000000          189.00000000          152.00000000          149.00000000          126.00000000          147.00000000           91.00000000          148.00000000 
       11929.10795297            1.00000000        70984.78125000       183600.39062500       372282.78125000       115876.39062500       137284.98437500         1483.00000000          140.00000000          123.00000000           67.00000000          151.00000000          186.00000000          189.00000000          152.00000000          149.00000000          126.00000000          147.00000000           91.00000000          148.00000000 
       11929.66547512            1.00000000        70963.78125000       183636.39062500       372461.78125000       115981.39062500       136261.98437500         1483.00000000          140.00000000          123.00000000           67.00000000          151.00000000          186.00000000          189.00000000          152.00000000          149.00000000          126.00000000          147.00000000           91.00000000          148.00000000 
       11930.28500616            1.00000000        70986.79687500       183512.39062500       372300.81250000       116102.39843750       134924.00000000         1483.00000000          140.00000000          123.00000000           67.00000000          151.00000000          186.00000000          189.00000000          152.00000000          149.00000000          126.00000000          147.00000000           91.00000000          148.00000000 
       11930.90460247            1.00000000        70944.78906250       183410.39062500       372127.78125000       116128.39062500       133513.98437500         1483.00000000          140.00000000          123.00000000           67.00000000          151.00000000          186.00000000          189.00000000          152.00000000          149.00000000          126.00000000          147.00000000           91.00000000          148.00000000 
       11931.43131064            1.00000000        70915.79687500       183330.39062500       372054.81250000       116210.39843750       132328.00000000         1483.00000000          140.00000000          123.00000000           67.00000000          151.00000000          186.00000000          189.00000000          152.00000000          149.00000000          126.00000000          147.00000000           91.00000000          148.00000000 
       11931.89609232            1.00000000        70956.78125000       183358.39062500       372133.78125000       116146.39062500       131515.98437500         1483.00000000          140.00000000          123.00000000           67.00000000          151.00000000          186.00000000          189.00000000          152.00000000          149.00000000          126.00000000          147.00000000           91.00000000          148.00000000 
       11932.32992168            1.00000000        71008.78125000       183332.39062500       372077.78125000       116058.39062500       130716.98437500         1483.00000000          140.00000000          123.00000000           67.00000000          151.00000000          186.00000000          189.00000000          152.00000000          149.00000000          126.00000000          147.00000000           91.00000000          148.00000000 
       11932.70180088            1.00000000        70989.78125000       183495.39062500       372461.78125000       116361.39062500       130257.98437500         1483.00000000          140.00000000          123.00000000           67.00000000          151.00000000          186.00000000          189.00000000          152.00000000          149.00000000          126.00000000          147.00000000           91.00000000          148.00000000 
       11933.04271080            1.00000000        70997.78125000       183428.39062500       372447.78125000       116353.39062500       129771.98437500         1483.00000000          140.00000000          123.00000000           67.00000000          151.00000000          186.00000000          189.00000000          152.00000000          149.00000000          126.00000000          147.00000000           91.00000000          148.00000000 
       11933.44562981            1.00000000        71019.78125000       183528.39062500       372546.78125000       116336.39062500       129424.98437500         1483.00000000          140.00000000          123.00000000           67.00000000          151.00000000          186.00000000          189.00000000          152.00000000          149.00000000          126.00000000          147.00000000           91.00000000          148.00000000 
       11933.81757955            1.00000000        70994.78125000       183488.39062500       372577.78125000       116414.39062500       129121.98437500         1483.00000000          140.00000000          123.00000000           67.00000000          151.00000000          186.00000000          189.00000000          152.00000000          149.00000000          126.00000000          147.00000000           91.00000000          148.00000000 
       11934.25155062            1.00000000        71036.78906250       183497.39062500       372615.78125000       116426.39062500       128873.99218750         1483.00000000          140.00000000          123.00000000           67.00000000          151.00000000          186.00000000          189.00000000          152.00000000          149.00000000          126.00000000          147.00000000           91.00000000          148.00000000 
       11934.90256725            1.00000000        71022.78125000       183398.39062500       372493.78125000       116530.39062500       128517.98437500         1483.00000000          140.00000000          123.00000000           67.00000000          151.00000000          186.00000000          189.00000000          152.00000000          149.00000000          126.00000000          147.00000000           91.00000000          148.00000000 
       11935.42963347            1.00000000        70996.79687500       183485.39062500       372737.81250000       116396.39843750       128382.00000000         1483.00000000          140.00000000          123.00000000           67.00000000          151.00000000          186.00000000          189.00000000          152.00000000          149.00000000          126.00000000          147.00000000           91.00000000          148.00000000 
       11935.95674690            1.00000000        70944.78125000       183287.39062500       372383.78125000       116338.39062500       128149.98437500         1483.00000000          140.00000000          123.00000000           67.00000000          151.00000000          186.00000000          189.00000000          152.00000000          149.00000000          126.00000000          147.00000000           91.00000000          148.00000000 
       11936.48390755            1.00000000        70983.78125000       183377.39062500       372591.78125000       116524.39062500       127966.98437500         1483.00000000          140.00000000          123.00000000           67.00000000          151.00000000          186.00000000          189.00000000          152.00000000          149.00000000          126.00000000          147.00000000           91.00000000          148.00000000 
       11937.07314298            1.00000000        70791.78125000       182921.39062500       371732.78125000       116149.39062500       127364.98437500         1483.00000000          140.00000000          123.00000000           67.00000000          151.00000000          186.00000000          189.00000000          152.00000000          149.00000000          126.00000000          147.00000000           91.00000000          148.00000000 
       11937.60040364            1.00000000        70786.78125000       182737.39062500       371409.78125000       116102.39062500       126892.98437500         1483.00000000          140.00000000          123.00000000           67.00000000          151.00000000          186.00000000          189.00000000          152.00000000          149.00000000          126.00000000          147.00000000           91.00000000          148.00000000 
       11938.28281108            1.00000000        70751.78906250       182815.39062500       371653.78125000       116049.39062500       126436.99218750         1483.00000000          140.00000000          123.00000000           67.00000000          151.00000000          186.00000000          189.00000000          152.00000000          149.00000000          126.00000000          147.00000000           91.00000000          148.00000000 
       11938.84120330            1.00000000        70839.78125000       182856.39062500       371837.78125000       116172.39062500       126124.98437500         1483.00000000          140.00000000          123.00000000           67.00000000          151.00000000          186.00000000          189.00000000          152.00000000          149.00000000          126.00000000          147.00000000           91.00000000          148.00000000 
       11939.27554498            1.00000000        70805.78906250       182881.39062500       371982.78125000       116168.39062500       125861.99218750         1483.00000000          140.00000000          123.00000000           67.00000000          151.00000000          186.00000000          189.00000000          152.00000000          149.00000000          126.00000000          147.00000000           91.00000000          148.00000000 
       11939.67889095            1.00000000        70822.78125000       182928.39062500       372020.78125000       116270.39062500       125590.98437500         1483.00000000          140.00000000          123.00000000           67.00000000          151.00000000          186.00000000          189.00000000          152.00000000          149.00000000          126.00000000          147.00000000           91.00000000          148.00000000 
       11940.05123484            1.00000000        70825.78906250       182978.39062500       372192.78125000       116371.39062500       125355.99218750         1483.00000000          140.00000000          123.00000000           67.00000000          151.00000000          186.00000000          189.00000000          152.00000000          149.00000000          126.00000000          147.00000000           91.00000000          148.00000000 
       11940.45463396            1.00000000        70804.77343750       182813.37500000       371941.78125000       116291.38281250       124911.97656250         1483.00000000          140.00000000          123.00000000           67.00000000          151.00000000          186.00000000          189.00000000          152.00000000          149.00000000          126.00000000          147.00000000           91.00000000          148.00000000 
       11940.95116314            1.00000000        70710.78125000       182492.39062500       371325.78125000       116068.39062500       124156.98437500         1483.00000000          140.00000000          123.00000000           67.00000000          151.00000000          186.00000000          189.00000000          152.00000000          149.00000000          126.00000000          147.00000000           91.00000000          148.00000000 
       11941.54084593            1.00000000        70711.78125000       182606.39062500       371695.78125000       116144.39062500       123411.98437500         1483.00000000          140.00000000          123.00000000           67.00000000          151.00000000          186.00000000          189.00000000          152.00000000          149.00000000          126.00000000          147.00000000           91.00000000          148.00000000 
       11942.16162847            1.00000000        70719.78906250       182576.39062500       371589.78125000       116219.39062500       122162.99218750         1483.00000000          140.00000000          123.00000000           67.00000000          151.00000000          186.00000000          189.00000000          152.00000000          149.00000000          126.00000000          147.00000000           91.00000000          148.00000000 
       11942.75143251            1.00000000        70736.78125000       182710.39062500       371882.78125000       116440.39062500       120745.98437500         1483.00000000          140.00000000          123.00000000           67.00000000          151.00000000          186.00000000          189.00000000          152.00000000          149.00000000          126.00000000          147.00000000           91.00000000          148.00000000 
       11943.34129563            1.00000000        70694.78125000       182701.39062500       371946.78125000       116241.39062500       118972.98437500         1483.00000000          140.00000000          123.00000000           67.00000000          151.00000000          186.00000000          189.00000000          152.00000000          149.00000000          126.00000000          147.00000000           91.00000000          148.00000000 
       11943.86911799            1.00000000        70754.78125000       182729.39062500       372034.78125000       116323.39062500       117304.98437500         1483.00000000          140.00000000          123.00000000           67.00000000          151.00000000          186.00000000          189.00000000          152.00000000          149.00000000          126.00000000          147.00000000           91.00000000          148.00000000 
       11944.39698766            1.00000000        70713.78125000       182848.39062500       372324.78125000       116536.39062500       115453.98437500         1483.00000000          140.00000000          123.00000000           67.00000000          151.00000000          186.00000000          189.00000000          152.00000000          149.00000000          126.00000000          147.00000000           91.00000000          148.00000000 
       11944.80068463            1.00000000        70739.78125000       182789.39062500       372213.78125000       116564.39062500       113975.98437500         1483.00000000          140.00000000          123.00000000           67.00000000          151.00000000          186.00000000          189.00000000          152.00000000          149.00000000          126.00000000          147.00000000           91.00000000          148.00000000 
       11945.17335254            1.00000000        70712.78125000       182571.39062500       371810.78125000       116174.39062500       112656.98437500         1483.00000000          140.00000000          123.00000000           67.00000000          151.00000000          186.00000000          189.00000000          152.00000000          149.00000000          126.00000000          147.00000000           91.00000000          148.00000000 
       11945.54604404            1.00000000        70712.78125000       182725.39062500       372163.78125000       116444.39062500       111901.98437500         1483.00000000          140.00000000          123.00000000           67.00000000          151.00000000          186.00000000          189.00000000          152.00000000          149.00000000          126.00000000          147.00000000           91.00000000          148.00000000 
       11945.88769864            1.00000000        70768.78125000       182684.39062500       372224.78125000       116256.39062500       111223.98437500         1483.00000000          140.00000000          123.00000000           67.00000000          151.00000000          186.00000000          189.00000000          152.00000000          149.00000000          126.00000000          147.00000000           91.00000000          148.00000000 
       11946.35362320            1.00000000        70715.78906250       182715.39062500       372251.78125000       116359.39062500       110817.99218750         1483.00000000          140.00000000          123.00000000           67.00000000          151.00000000          186.00000000          189.00000000          152.00000000          149.00000000          126.00000000          147.00000000           91.00000000          148.00000000 
       11946.91278134            1.00000000        70741.78125000       182822.39062500       372441.78125000       116494.39062500       110723.98437500         1483.00000000          140.00000000          123.00000000           67.00000000          151.00000000          186.00000000          189.00000000          152.00000000          149.00000000          126.00000000          147.00000000           91.00000000          148.00000000 
       11947.59626892            1.00000000        70728.78125000       182756.39062500       372458.78125000       116416.39062500       111133.98437500         1483.00000000          140.00000000          123.00000000           67.00000000          151.00000000          186.00000000          189.00000000          152.00000000          149.00000000          126.00000000          147.00000000           91.00000000          148.00000000 
       11948.21769009            1.00000000        70692.78125000       182518.39062500       371895.78125000       116221.39062500       111846.98437500         1483.00000000          140.00000000          123.00000000           67.00000000          151.00000000          186.00000000          189.00000000          152.00000000          149.00000000          126.00000000          147.00000000           91.00000000          148.00000000 
       11948.74594963            1.00000000        70636.78125000       182573.39062500       372193.78125000       116485.39062500       112935.98437500         1483.00000000          140.00000000          123.00000000           67.00000000          151.00000000          186.00000000          189.00000000          152.00000000          149.00000000          126.00000000          147.00000000           91.00000000          148.00000000 
       11949.36749209            1.00000000        70650.78125000       182547.39062500       372241.78125000       116475.39062500       114309.98437500         1483.00000000          140.00000000          123.00000000           67.00000000          151.00000000          186.00000000          189.00000000          152.00000000          149.00000000          126.00000000          147.00000000           91.00000000          148.00000000 
       11949.92693637            1.00000000        70679.78125000       182505.39062500       372113.78125000       116467.39062500       115424.98437500         1483.00000000          140.00000000          123.00000000           67.00000000          151.00000000          186.00000000          189.00000000          152.00000000          149.00000000          126.00000000          147.00000000           91.00000000          148.00000000 
       11951.29469050            1.00000000        70653.78125000       182309.39062500       371803.78125000       116200.39062500       117816.98437500         1483.00000000          140.00000000          123.00000000           67.00000000          151.00000000          186.00000000          189.00000000          152.00000000          149.00000000          126.00000000          147.00000000           91.00000000          148.00000000 
       11952.50728348            1.00000000        70616.78125000       182560.39062500       372445.78125000       116540.39062500       119170.98437500         1483.00000000          140.00000000          123.00000000           67.00000000          151.00000000          186.00000000          189.00000000          152.00000000          149.00000000          126.00000000          147.00000000           91.00000000          148.00000000 
       11954.06225493            1.00000000        70654.78125000       182671.39062500       372797.78125000       116606.39062500       119873.98437500         1483.00000000          140.00000000          123.00000000           67.00000000          151.00000000          186.00000000          189.00000000          152.00000000          149.00000000          126.00000000          147.00000000           91.00000000          148.00000000 
       11955.86653588            1.00000000        70612.78125000       182484.39062500       372577.78125000       116635.39062500       120497.98437500         1483.00000000          140.00000000          123.00000000           67.00000000          151.00000000          186.00000000          189.00000000          152.00000000          149.00000000          126.00000000          147.00000000           91.00000000          148.00000000 
       11957.42239386            1.00000000        70567.78906250       182353.39062500       372476.78125000       116397.39062500       121258.99218750         1483.00000000          140.00000000          123.00000000           67.00000000          151.00000000          186.00000000          189.00000000          152.00000000          149.00000000          126.00000000          147.00000000           91.00000000          148.00000000 
       11958.72963192            1.00000000        70626.78125000       182529.39062500       373059.78125000       116672.39062500       121604.98437500         1483.00000000          140.00000000          123.00000000           67.00000000          151.00000000          186.00000000          189.00000000          152.00000000          149.00000000          126.00000000          147.00000000           91.00000000          148.00000000 
       11960.56647980            1.00000000        70481.78125000       182138.39062500       372359.78125000       116613.39062500       120444.98437500         1483.00000000          140.00000000          123.00000000           67.00000000          151.00000000          186.00000000          189.00000000          152.00000000          149.00000000          126.00000000          147.00000000           91.00000000          148.00000000 
       11962.52849154            1.00000000        70434.78125000       181947.39062500       372107.78125000       116424.39062500       118212.98437500         1483.00000000          140.00000000          123.00000000           67.00000000          151.00000000          186.00000000          189.00000000          152.00000000          149.00000000          126.00000000          147.00000000           91.00000000          148.00000000 
       11964.36652309            1.00000000        70418.79687500       182038.39062500       372426.81250000       116428.39843750       116196.00000000         1483.00000000          140.00000000          123.00000000           67.00000000          151.00000000          186.00000000          189.00000000          152.00000000          149.00000000          126.00000000          147.00000000           91.00000000          148.00000000 
       11966.14279253            1.00000000        70463.77343750       182094.37500000       372615.78125000       116747.38281250       113883.97656250         1483.00000000          140.00000000          123.00000000           67.00000000          151.00000000          186.00000000          189.00000000          152.00000000          149.00000000          126.00000000          147.00000000           91.00000000          148.00000000 
       11968.38726590            1.00000000        70467.79687500       182062.39062500       372738.81250000       116659.39843750       112172.00000000         1483.00000000          140.00000000          123.00000000           67.00000000          151.00000000          186.00000000          189.00000000          152.00000000          149.00000000          126.00000000          147.00000000           91.00000000          148.00000000 
       11970.07118130            1.00000000        70439.78125000       182150.39062500       373151.78125000       116928.39062500       111940.98437500         1483.00000000          140.00000000          123.00000000           67.00000000          151.00000000          186.00000000          189.00000000          152.00000000          149.00000000          126.00000000          147.00000000           91.00000000          148.00000000 
       11971.78677432            1.00000000        70357.78906250       181803.39062500       372662.78125000       116739.39062500       112562.99218750         1483.00000000          140.00000000          123.00000000           67.00000000          151.00000000          186.00000000          189.00000000          152.00000000          149.00000000          126.00000000          147.00000000           91.00000000          148.00000000 
       11974.25186247            1.00000000        70353.78125000       181703.39062500       372689.78125000       116931.39062500       114165.98437500         1483.00000000          140.00000000          123.00000000           67.00000000          151.00000000          186.00000000          189.00000000          152.00000000          149.00000000          126.00000000          147.00000000           91.00000000          148.00000000 
       11976.40575648            1.00000000        70259.78906250       181496.39062500       372480.78125000       116587.39062500       115355.99218750         1483.00000000          140.00000000          123.00000000           67.00000000          151.00000000          186.00000000          189.00000000          152.00000000          149.00000000          126.00000000          147.00000000           91.00000000          148.00000000 
       11978.09196081            1.00000000        70257.78125000       181518.39062500       372618.78125000       116888.39062500       116350.98437500         1483.00000000          140.00000000          123.00000000           67.00000000          151.00000000          186.00000000          189.00000000          152.00000000          149.00000000          126.00000000          147.00000000           91.00000000          148.00000000 
       11980.46595310            1.00000000        70222.78125000       181279.39062500       372381.78125000       116647.39062500       117141.98437500         1483.00000000          140.00000000          123.00000000           67.00000000          151.00000000          186.00000000          189.00000000          152.00000000          149.00000000          126.00000000          147.00000000           91.00000000          148.00000000 
       11982.43459122            1.00000000        70187.78125000       181222.39062500       372454.78125000       116729.39062500       117740.98437500         1483.00000000          140.00000000          123.00000000           67.00000000          151.00000000          186.00000000          189.00000000          152.00000000          149.00000000          126.00000000          147.00000000           91.00000000          148.00000000 
       11984.21630536            1.00000000        70204.78125000       181348.39062500       372838.78125000       116782.39062500       118415.98437500         1483.00000000          140.00000000          123.00000000           67.00000000          151.00000000          186.00000000          189.00000000          152.00000000          149.00000000          126.00000000          147.00000000           91.00000000          148.00000000 
       11986.65531133            1.00000000        70158.78125000       181157.39062500       372726.78125000       116769.39062500       119460.98437500         1483.00000000          140.00000000          123.00000000           67.00000000          151.00000000          186.00000000          189.00000000          152.00000000          149.00000000          126.00000000          147.00000000           91.00000000          148.00000000 
       11989.12661291            1.00000000        70020.78125000       180862.39062500       372299.78125000       116753.39062500       120504.98437500         1483.00000000          140.00000000          123.00000000           67.00000000          151.00000000          186.00000000          189.00000000          152.00000000          149.00000000          126.00000000          147.00000000           91.00000000          148.00000000 
       11991.25463683            1.00000000        70026.78125000       180901.39062500       372534.78125000       116842.39062500       121313.98437500         1483.00000000          140.00000000          123.00000000           67.00000000          151.00000000          186.00000000          189.00000000          152.00000000          149.00000000          126.00000000          147.00000000           91.00000000          148.00000000 
       11993.75917527            1.00000000        69865.78906250       180096.39062500       371123.78125000       116514.39062500       120931.99218750         1483.00000000          140.00000000          123.00000000           67.00000000          151.00000000          186.00000000          189.00000000          152.00000000          149.00000000          126.00000000          147.00000000           91.00000000          148.00000000 
       11995.76356994            1.00000000        69941.78125000       180838.39062500       372797.78125000       117038.39062500       121212.98437500         1483.00000000          140.00000000          123.00000000           67.00000000          151.00000000          186.00000000          189.00000000          152.00000000          149.00000000          126.00000000          147.00000000           91.00000000          148.00000000 
       11998.52072206            1.00000000        70007.78906250       180760.39062500       372954.78125000       117127.39062500       120606.99218750         1483.00000000          140.00000000          123.00000000           67.00000000          151.00000000          186.00000000          189.00000000          152.00000000          149.00000000          126.00000000          147.00000000           91.00000000          148.00000000 
       12001.21645355            1.00000000        69960.78125000       180613.39062500       372760.78125000       117028.39062500       119430.98437500         1483.00000000          140.00000000          123.00000000           67.00000000          151.00000000          186.00000000          189.00000000          152.00000000          149.00000000          126.00000000          147.00000000           91.00000000          148.00000000 
       12003.25474012            1.00000000        69964.78125000       180775.39062500       373402.78125000       117239.39062500       118459.98437500         1483.00000000          140.00000000          123.00000000           67.00000000          151.00000000          186.00000000          189.00000000          152.00000000          149.00000000          126.00000000          147.00000000           91.00000000          148.00000000 
       12006.14089987            1.00000000        69856.79687500       180543.39062500       373307.81250000       117302.39843750       117430.00000000         1483.00000000          140.00000000          123.00000000           67.00000000          151.00000000          186.00000000          189.00000000          152.00000000          149.00000000          126.00000000          147.00000000           91.00000000          148.00000000 
       12008.18088300            1.00000000        69888.78125000       180693.39062500       373740.78125000       117460.39062500       117241.98437500         1483.00000000          140.00000000          123.00000000           67.00000000          151.00000000          186.00000000          189.00000000          152.00000000          149.00000000          126.00000000          147.00000000           91.00000000          148.00000000 
       12010.75540308            1.00000000        69814.78906250       180499.39062500       373533.78125000       117374.39062500       117342.99218750         1483.00000000          140.00000000          123.00000000           67.00000000          151.00000000          186.00000000          189.00000000          152.00000000          149.00000000          126.00000000          147.00000000           91.00000000          148.00000000 
       12013.61380309            1.00000000        69727.78125000       180218.39062500       373260.78125000       117329.39062500       117861.98437500         1483.00000000          140.00000000          123.00000000           67.00000000          151.00000000          186.00000000          189.00000000          152.00000000          149.00000000          126.00000000          147.00000000           91.00000000          148.00000000 
       12016.09639006            1.00000000        69754.78125000       180281.39062500       373610.78125000       117455.39062500       118601.98437500         1483.00000000          140.00000000          123.00000000           67.00000000          151.00000000          186.00000000          189.00000000          152.00000000          149.00000000          126.00000000          147.00000000           91.00000000          148.00000000 
       12019.11460517            1.00000000        69700.78125000       180084.39062500       373464.78125000       117223.39062500       119102.98437500         1483.00000000          140.00000000          123.00000000           67.00000000          151.00000000          186.00000000          189.00000000          152.00000000          149.00000000          126.00000000          147.00000000           91.00000000          148.00000000 
       12021.37927557            1.00000000        69718.78125000       180211.39062500       373915.78125000       117652.39062500       119527.98437500         1483.00000000          140.00000000          123.00000000           67.00000000          151.00000000          186.00000000          189.00000000          152.00000000          149.00000000          126.00000000          147.00000000           91.00000000          148.00000000 
       12024.68347139            1.00000000        69591.78906250       179630.39062500       373028.78125000       117222.39062500       119401.99218750         1483.00000000          140.00000000          123.00000000           67.00000000          151.00000000          186.00000000          189.00000000          152.00000000          149.00000000          126.00000000          147.00000000           91.00000000          148.00000000 
       12027.29666306            1.00000000        69669.78125000       179836.39062500       373677.78125000       117576.39062500       119623.98437500         1483.00000000          140.00000000          123.00000000           67.00000000          151.00000000          186.00000000          189.00000000          152.00000000          149.00000000          126.00000000          147.00000000           91.00000000          148.00000000 
       12030.19455883            1.00000000        69531.78125000       179569.39062500       373420.78125000       117713.39062500       119587.98437500         1483.00000000          140.00000000          123.00000000           67.00000000          151.00000000          186.00000000          189.00000000          152.00000000          149.00000000          126.00000000          147.00000000           91.00000000          148.00000000 
       12032.77865955            1.00000000        69519.78906250       179487.39062500       373478.78125000       117580.39062500       119835.99218750         1483.00000000          140.00000000          123.00000000           67.00000000          151.00000000          186.00000000          189.00000000          152.00000000          149.00000000          126.00000000          147.00000000           91.00000000          148.00000000 
       12035.71077041            1.00000000        69496.78906250       179139.39062500       373096.78125000       117429.39062500       120168.99218750         1483.00000000          140.00000000          123.00000000           67.00000000          151.00000000          186.00000000          189.00000000          152.00000000          149.00000000          126.00000000          147.00000000           91.00000000          148.00000000 
       12038.83364215            1.00000000        69423.78125000       179143.39062500       373424.78125000       117594.39062500       120918.98437500         1483.00000000          140.00000000          123.00000000           67.00000000          151.00000000          186.00000000          189.00000000          152.00000000          149.00000000          126.00000000          147.00000000           91.00000000          148.00000000 
       12041.67404257            1.00000000        69359.78125000       178875.39062500       373045.78125000       117600.39062500       121521.98437500         1483.00000000          140.00000000          123.00000000           67.00000000          151.00000000          186.00000000          189.00000000          152.00000000          149.00000000          126.00000000          147.00000000           91.00000000          148.00000000 
       12044.86322163            1.00000000        69044.78906250       177478.39062500       370464.78125000       117300.39062500       121248.99218750         1483.00000000          140.00000000          123.00000000           67.00000000          151.00000000          186.00000000          189.00000000          152.00000000          149.00000000          126.00000000          147.00000000           91.00000000          148.00000000 
       12047.80130738            1.00000000        68829.78125000       178469.39062500       372637.78125000       117393.39062500       122381.98437500         1483.00000000          140.00000000          123.00000000           67.00000000          151.00000000          186.00000000          189.00000000          152.00000000          149.00000000          126.00000000          147.00000000           91.00000000          148.00000000 
       12051.18348393            1.00000000        69215.78125000       178626.39062500       373324.78125000       117816.39062500       122636.98437500         1483.00000000          140.00000000          123.00000000           67.00000000          151.00000000          186.00000000          189.00000000          152.00000000          149.00000000          126.00000000          147.00000000           91.00000000          148.00000000 
       12053.99816321            1.00000000        69333.79687500       178780.39062500       373988.81250000       117933.39843750       122583.00000000         1483.00000000          140.00000000          123.00000000           67.00000000          151.00000000          186.00000000          189.00000000          152.00000000          149.00000000          126.00000000          147.00000000           91.00000000          148.00000000 
       12057.28891600            1.00000000        69236.78125000       178443.39062500       373551.78125000       117825.39062500       122026.98437500         1483.00000000          140.00000000          123.00000000           67.00000000          151.00000000          186.00000000          189.00000000          152.00000000          149.00000000          126.00000000          147.00000000           91.00000000          148.00000000 
       12060.10648776            1.00000000        69213.78125000       178645.39062500       374179.78125000       118111.39062500       121936.98437500         1483.00000000          140.00000000          123.00000000           67.00000000          151.00000000          186.00000000          189.00000000          152.00000000          149.00000000          126.00000000          147.00000000           91.00000000          148.00000000 
       12063.62240931            1.00000000        69129.79687500       178235.39062500       373638.81250000       117785.39843750       121416.00000000         1483.00000000          140.00000000          123.00000000           67.00000000          151.00000000          186.00000000          189.00000000          152.00000000          149.00000000          126.00000000          147.00000000           91.00000000          148.00000000 
       12066.79168625            1.00000000        69046.78125000       178018.39062500       373384.78125000       118062.39062500       121120.98437500         1483.00000000          140.00000000          123.00000000           67.00000000          151.00000000          186.00000000          189.00000000          152.00000000          149.00000000          126.00000000          147.00000000           91.00000000          148.00000000 
       12070.18468270            1.00000000        69105.78125000       178199.39062500       374141.78125000       118309.39062500       121192.98437500         1483.00000000          140.00000000          123.00000000           67.00000000          151.00000000          186.00000000          189.00000000          152.00000000          149.00000000          126.00000000          147.00000000           91.00000000          148.00000000 
       12073.57961413            1.00000000        69049.78906250       178007.39062500       374019.78125000       118313.39062500       121131.99218750         1483.00000000          140.00000000          123.00000000           67.00000000          151.00000000          186.00000000          189.00000000          152.00000000          149.00000000          126.00000000          147.00000000           91.00000000          148.00000000 
       12077.07174941            1.00000000        69112.78125000       177955.39062500       374222.78125000       118380.39062500       121186.98437500         1483.00000000          140.00000000          123.00000000           67.00000000          151.00000000          186.00000000          189.00000000          152.00000000          149.00000000          126.00000000          147.00000000           91.00000000          148.00000000 
       12080.31174165            1.00000000        69287.78906250       178438.39062500       375543.78125000       118844.39062500       121817.99218750         1483.00000000          140.00000000          123.00000000           67.00000000          151.00000000          186.00000000          189.00000000          152.00000000          149.00000000          126.00000000          147.00000000           91.00000000          148.00000000 
       12083.42633584            1.00000000        69270.79687500       178467.39062500       375884.81250000       119196.39843750       122025.00000000         1483.00000000          140.00000000          123.00000000           67.00000000          151.00000000          186.00000000          189.00000000          152.00000000          149.00000000          126.00000000          147.00000000           91.00000000          148.00000000 
       12087.11510317            1.00000000        69141.78125000       177873.39062500       374997.78125000       118962.39062500       121727.98437500         1483.00000000          140.00000000          123.00000000           67.00000000          151.00000000          186.00000000          189.00000000          152.00000000          149.00000000          126.00000000          147.00000000           91.00000000          148.00000000 
       12090.48787027            1.00000000        69208.78125000       178131.39062500       375784.78125000       119148.39062500       121915.98437500         1483.00000000          140.00000000          123.00000000           67.00000000          151.00000000          186.00000000          189.00000000          152.00000000          149.00000000          126.00000000          147.00000000           91.00000000          148.00000000 
       12094.46764259            1.00000000        69011.78906250       177629.39062500       375105.78125000       119428.39062500       121711.99218750         1483.00000000          140.00000000          123.00000000           67.00000000          151.00000000          186.00000000          189.00000000          152.00000000          149.00000000          126.00000000          147.00000000           91.00000000          148.00000000 
       12097.65337327            1.00000000        68452.78906250       177021.39062500       374071.78125000       119909.39062500       121785.99218750         1483.00000000          140.00000000          123.00000000           67.00000000          151.00000000          186.00000000          189.00000000          152.00000000          149.00000000          126.00000000          147.00000000           91.00000000          148.00000000 
       12101.70170441            1.00000000        67829.78125000       172823.39062500       366589.78125000       113951.39062500       120051.98437500         1483.00000000          140.00000000          123.00000000           67.00000000          151.00000000          186.00000000          189.00000000          152.00000000          149.00000000          126.00000000          147.00000000           91.00000000          148.00000000 
       12105.11463555            1.00000000        68297.78125000       177189.39062500       375190.78125000       117862.39062500       123622.98437500         1483.00000000          140.00000000          123.00000000           67.00000000          151.00000000          186.00000000          189.00000000          152.00000000          149.00000000          126.00000000          147.00000000           91.00000000          148.00000000 
       12108.62529121            1.00000000        68331.78125000       175623.39062500       372113.78125000       117882.39062500       123152.98437500         1483.00000000          140.00000000          123.00000000           67.00000000          151.00000000          186.00000000          189.00000000          152.00000000          149.00000000          126.00000000          147.00000000           91.00000000          148.00000000 
       12112.48939732            1.00000000        68433.78125000       176552.39062500       374494.78125000       118629.39062500       124352.98437500         1483.00000000          140.00000000          123.00000000           67.00000000          151.00000000          186.00000000          189.00000000          152.00000000          149.00000000          126.00000000          147.00000000           91.00000000          148.00000000 
       12116.19617752            1.00000000        68435.78125000       173676.39062500       369587.78125000       117029.39062500       122917.98437500         1483.00000000          140.00000000          123.00000000           67.00000000          151.00000000          186.00000000          189.00000000          152.00000000          149.00000000          126.00000000          147.00000000           91.00000000          148.00000000 
       12120.28908764            1.00000000        68545.78125000       177089.39062500       376174.78125000       118253.39062500       125286.98437500         1483.00000000          140.00000000          123.00000000           67.00000000          151.00000000          186.00000000          189.00000000          152.00000000          149.00000000          126.00000000          147.00000000           91.00000000          148.00000000 
       12124.03271611            1.00000000        68604.78906250       177229.39062500       376991.78125000       119171.39062500       125571.99218750         1483.00000000          140.00000000          123.00000000           67.00000000          151.00000000          186.00000000          189.00000000          152.00000000          149.00000000          126.00000000          147.00000000           91.00000000          148.00000000 
       12127.93882613            1.00000000        68722.78125000       177151.39062500       377099.78125000       119270.39062500       125521.98437500         1483.00000000          140.00000000          123.00000000           67.00000000          151.00000000          186.00000000          189.00000000          152.00000000          149.00000000          126.00000000          147.00000000           91.00000000          148.00000000 
       12132.03978346            1.00000000        68740.78125000       177248.39062500       377796.78125000       119529.39062500       125454.98437500         1483.00000000          140.00000000          123.00000000           67.00000000          151.00000000          186.00000000          189.00000000          152.00000000          149.00000000          126.00000000          147.00000000           91.00000000          148.00000000 
       12135.34181438            1.00000000        68724.78906250       176686.39062500       376911.78125000       119239.39062500       124863.99218750         1483.00000000          140.00000000          123.00000000           67.00000000          151.00000000          186.00000000          189.00000000          152.00000000          149.00000000          126.00000000          147.00000000           91.00000000          148.00000000 
       12139.70456965            1.00000000        68653.78125000       176899.39062500       377670.78125000       119028.39062500       124657.98437500         1483.00000000          140.00000000          123.00000000           67.00000000          151.00000000          186.00000000          189.00000000          152.00000000          149.00000000          126.00000000          147.00000000           91.00000000          148.00000000 
       12143.94205040            1.00000000        68779.79687500       176689.39062500       377692.81250000       119224.39843750       124213.00000000         1483.00000000          140.00000000          123.00000000           67.00000000          151.00000000          186.00000000          189.00000000          152.00000000          149.00000000          126.00000000          147.00000000           91.00000000          148.00000000 
       12147.50770810            1.00000000        68842.78125000       176778.39062500       378229.78125000       119402.39062500       124153.98437500         1483.00000000          140.00000000          123.00000000           67.00000000          151.00000000          186.00000000          189.00000000          152.00000000          149.00000000          126.00000000          147.00000000           91.00000000          148.00000000 
       12152.26522115            1.00000000        68711.78125000       175747.39062500       376315.78125000       119419.39062500       123573.98437500         1483.00000000          140.00000000          123.00000000           67.00000000          151.00000000          186.00000000          189.00000000          152.00000000          149.00000000          126.00000000          147.00000000           91.00000000          148.00000000 
       12156.25415464            1.00000000        68754.78906250       176578.39062500       378540.78125000       120146.39062500       124669.99218750         1483.00000000          140.00000000          123.00000000           67.00000000          151.00000000          186.00000000          189.00000000          152.00000000          149.00000000          126.00000000          147.00000000           91.00000000          148.00000000 
       12159.92374250            1.00000000        68617.78906250       176554.39062500       378719.78125000       120162.39062500       125205.99218750         1483.00000000          140.00000000          123.00000000           67.00000000          151.00000000          186.00000000          189.00000000          152.00000000          149.00000000          126.00000000          147.00000000           91.00000000          148.00000000 
       12164.56222232            1.00000000        68528.78125000       176070.39062500       378178.78125000       119873.39062500       125873.98437500         1483.00000000          140.00000000          123.00000000           67.00000000          151.00000000          186.00000000          189.00000000          152.00000000          149.00000000          126.00000000          147.00000000           91.00000000          148.00000000 
       12168.78506727            1.00000000        68429.78125000       176290.39062500       379013.78125000       120396.39062500       127034.98437500         1483.00000000          140.00000000          123.00000000           67.00000000          151.00000000          186.00000000          189.00000000          152.00000000          149.00000000          126.00000000          147.00000000           91.00000000          148.00000000 
       12172.72046638            1.00000000        68365.78125000       176116.39062500       379159.78125000       120354.39062500       127690.98437500         1483.00000000          140.00000000          123.00000000           67.00000000          151.00000000          186.00000000          189.00000000          152.00000000          149.00000000          126.00000000          147.00000000           91.00000000          148.00000000 
       12177.53031542            1.00000000        68251.78125000       175897.39062500       379055.78125000       120282.39062500       128137.98437500         1483.00000000          140.00000000          123.00000000           67.00000000          151.00000000          186.00000000          189.00000000          152.00000000          149.00000000          126.00000000          147.00000000           91.00000000          148.00000000 
       12181.76229253            1.00000000        68182.78906250       175940.39062500       379535.78125000       120479.39062500       128385.99218750         1483.00000000          140.00000000          123.00000000           67.00000000          151.00000000          186.00000000          189.00000000          152.00000000          149.00000000          126.00000000          147.00000000           91.00000000          148.00000000 
       12185.70620503            1.00000000        68121.78125000       175834.39062500       379572.78125000       120703.39062500       128405.98437500         1483.00000000          140.00000000          123.00000000           67.00000000          151.00000000          186.00000000          189.00000000          152.00000000          149.00000000          126.00000000          147.00000000           91.00000000          148.00000000 
       12190.42937260            1.00000000        68048.78906250       175778.39062500       379927.78125000       120768.39062500       128544.99218750         1483.00000000          140.00000000          123.00000000           67.00000000          151.00000000          186.00000000          189.00000000          152.00000000          149.00000000          126.00000000          147.00000000           91.00000000          148.00000000 
       12195.12386396            1.00000000        68022.77343750       175557.37500000       379849.78125000       120846.38281250       128746.97656250         1483.00000000          140.00000000          123.00000000           67.00000000          151.00000000          186.00000000          189.00000000          152.00000000          149.00000000          126.00000000          147.00000000           91.00000000          148.00000000 
       12199.23860227            1.00000000        67985.79687500       175655.39062500       380400.81250000       121133.39843750       129246.00000000         1483.00000000          140.00000000          123.00000000           67.00000000          151.00000000          186.00000000          189.00000000          152.00000000          149.00000000          126.00000000          147.00000000           91.00000000          148.00000000 
       12204.03728242            1.00000000        67805.78125000       175198.39062500       379891.78125000       121050.39062500       129038.98437500         1483.00000000          140.00000000          123.00000000           67.00000000          151.00000000          186.00000000          189.00000000          152.00000000          149.00000000          126.00000000          147.00000000           91.00000000          148.00000000 
       12208.83979020            1.00000000        67846.78125000       175271.39062500       380526.78125000       121174.39062500       129087.98437500         1483.00000000          140.00000000          123.00000000           67.00000000          151.00000000          186.00000000          189.00000000          152.00000000          149.00000000          126.00000000          147.00000000           91.00000000          148.00000000 
       12212.93143156            1.00000000        67766.78125000       175020.39062500       380354.78125000       121145.39062500       128801.98437500         1483.00000000          140.00000000          123.00000000           67.00000000          151.00000000          186.00000000          189.00000000          152.00000000          149.00000000          126.00000000          147.00000000           91.00000000          148.00000000 
       12217.61099783            1.00000000        67735.78125000       174848.39062500       380433.78125000       121172.39062500       128665.98437500         1483.00000000          140.00000000          123.00000000           67.00000000          151.00000000          186.00000000          189.00000000          152.00000000          149.00000000          126.00000000          147.00000000           91.00000000          148.00000000 
       12222.68463092            1.00000000        67642.79687500       174666.39062500       380458.81250000       121149.39843750       128555.00000000         1483.00000000          140.00000000          123.00000000           67.00000000          151.00000000          186.00000000          189.00000000          152.00000000          149.00000000          126.00000000          147.00000000           91.00000000          148.00000000 
       12227.56715319            1.00000000        67598.78125000       174487.39062500       380615.78125000       121130.39062500       128760.98437500         1483.00000000          140.00000000          123.00000000           67.00000000          151.00000000          186.00000000          189.00000000          152.00000000          149.00000000          126.00000000          147.00000000           91.00000000          148.00000000 
       12232.12774196            1.00000000        67594.78125000       174625.39062500       381293.78125000       121444.39062500       129355.98437500         1483.00000000          140.00000000          123.00000000           67.00000000          151.00000000          186.00000000          189.00000000          152.00000000          149.00000000          126.00000000          147.00000000           91.00000000          148.00000000 
       12236.56133068            1.00000000        67566.79687500       174466.39062500       381324.81250000       121502.39843750       130004.00000000         1483.00000000          140.00000000          123.00000000           67.00000000          151.00000000          186.00000000          189.00000000          152.00000000          149.00000000          126.00000000          147.00000000           91.00000000          148.00000000 
       12241.65093015            1.00000000        67429.77343750       174183.37500000       381153.78125000       121478.38281250       130690.97656250         1483.00000000          140.00000000          123.00000000           67.00000000          151.00000000          186.00000000          189.00000000          152.00000000          149.00000000          126.00000000          147.00000000           91.00000000          148.00000000 
       12246.67948854            1.00000000        67450.78906250       173967.39062500       381271.78125000       121677.39062500       131342.98437500         1483.00000000          140.00000000          123.00000000           67.00000000          151.00000000          186.00000000          189.00000000          152.00000000          149.00000000          126.00000000          147.00000000           91.00000000          148.00000000 
       12251.28723093            1.00000000        67362.78125000       174192.39062500       382023.78125000       121941.39062500       131909.98437500         1483.00000000          140.00000000          123.00000000           67.00000000          151.00000000          186.00000000          189.00000000          152.00000000          149.00000000          126.00000000          147.00000000           91.00000000          148.00000000 
       12256.12750764            1.00000000        67228.78125000       173725.39062500       381380.78125000       121793.39062500       131911.98437500         1483.00000000          140.00000000          123.00000000           67.00000000          151.00000000          186.00000000          189.00000000          152.00000000          149.00000000          126.00000000          147.00000000           91.00000000          148.00000000 
       12261.33185503            1.00000000        67198.78125000       173610.39062500       381521.78125000       121826.39062500       132118.98437500         1483.00000000          140.00000000          123.00000000           67.00000000          151.00000000          186.00000000          189.00000000          152.00000000          149.00000000          126.00000000          147.00000000           91.00000000          148.00000000 
       12266.24572417            1.00000000        67003.78125000       173067.39062500       380892.78125000       121791.39062500       132081.98437500         1483.00000000          140.00000000          123.00000000           67.00000000          151.00000000          186.00000000          189.00000000          152.00000000          149.00000000          126.00000000          147.00000000           91.00000000          148.00000000 
       12271.42598426            1.00000000        66309.78906250       171887.39062500       378498.78125000       121324.39062500       131441.98437500         1483.00000000          140.00000000          123.00000000           67.00000000          151.00000000          186.00000000          189.00000000          152.00000000          149.00000000          126.00000000          147.00000000           91.00000000          148.00000000 
       12276.08544551            1.00000000        67002.78125000       173088.39062500       381694.78125000       122094.39062500       132753.98437500         1483.00000000          140.00000000          123.00000000           67.00000000          151.00000000          186.00000000          189.00000000          152.00000000          149.00000000          126.00000000          147.00000000           91.00000000          148.00000000 
       12281.40554943            1.00000000        66275.78906250       168791.39062500       372605.78125000       120136.39062500       129870.99218750         1483.00000000          140.00000000          123.00000000           67.00000000          151.00000000          186.00000000          189.00000000          152.00000000          149.00000000          126.00000000          147.00000000           91.00000000          148.00000000 
       12286.82897906            1.00000000        66970.78125000       173123.39062500       382702.78125000       122195.39062500       133394.98437500         1483.00000000          140.00000000          123.00000000           67.00000000          151.00000000          186.00000000          189.00000000          152.00000000          149.00000000          126.00000000          147.00000000           91.00000000          148.00000000 
       12291.92813915            1.00000000        67030.79687500       172983.39062500       382930.81250000       122586.39843750       133491.00000000         1483.00000000          140.00000000          123.00000000           67.00000000          151.00000000          186.00000000          189.00000000          152.00000000          149.00000000          126.00000000          147.00000000           91.00000000          148.00000000 
       12297.42687461            1.00000000        66954.77343750       172846.37500000       383014.78125000       122498.38281250       133529.98437500         1483.00000000          140.00000000          123.00000000           67.00000000          151.00000000          186.00000000          189.00000000          152.00000000          149.00000000          126.00000000          147.00000000           91.00000000          148.00000000 
       12302.23823803            1.00000000        66919.79687500       172665.39062500       383129.81250000       122595.39843750       133649.00000000         1483.00000000          140.00000000          123.00000000           67.00000000          151.00000000          186.00000000          189.00000000          152.00000000          149.00000000          126.00000000          147.00000000           91.00000000          148.00000000 
       12307.61433766            1.00000000        66793.78906250       172408.39062500       382913.78125000       122938.39062500       133721.98437500         1483.00000000          140.00000000          123.00000000           67.00000000          151.00000000          186.00000000          189.00000000          152.00000000          149.00000000          126.00000000          147.00000000           91.00000000          148.00000000 
       12313.16033288            1.00000000        66822.78125000       172587.39062500       383732.78125000       123085.39062500       134163.98437500         1483.00000000          140.00000000          123.00000000           67.00000000          151.00000000          186.00000000          189.00000000          152.00000000          149.00000000          126.00000000          147.00000000           91.00000000          148.00000000 
       12318.54611140            1.00000000        66718.78125000       172181.39062500       383381.78125000       122805.39062500       134373.98437500         1483.00000000          140.00000000          123.00000000           67.00000000          151.00000000          186.00000000          189.00000000          152.00000000          149.00000000          126.00000000          147.00000000           91.00000000          148.00000000 
       12324.16826909            1.00000000        66742.78906250       172099.39062500       383470.78125000       123272.39062500       134849.98437500         1483.00000000          140.00000000          123.00000000           67.00000000          151.00000000          186.00000000          189.00000000          152.00000000          149.00000000          126.00000000          147.00000000           91.00000000          148.00000000 
       12329.36511750            1.00000000        66639.78125000       171811.39062500       383362.78125000       123056.39062500       135398.98437500         1483.00000000          140.00000000          123.00000000           67.00000000          151.00000000          186.00000000          189.00000000          152.00000000          149.00000000          126.00000000          147.00000000           91.00000000          148.00000000 
       12334.63269564            1.00000000        66578.78125000       171616.39062500       383233.78125000       123140.39062500       135949.98437500         1483.00000000          140.00000000          123.00000000           67.00000000          151.00000000          186.00000000          189.00000000          152.00000000          149.00000000          126.00000000          147.00000000           91.00000000          148.00000000 
       12340.10387426            1.00000000        66572.78125000       171716.39062500       384017.78125000       123319.39062500       136617.98437500         1483.00000000          140.00000000          123.00000000           67.00000000          151.00000000          186.00000000          189.00000000          152.00000000          149.00000000          126.00000000          147.00000000           91.00000000          148.00000000 
       12345.94522098            1.00000000        66468.78906250       171347.39062500       383687.78125000       123271.39062500       136824.98437500         1483.00000000          140.00000000          123.00000000           67.00000000          151.00000000          186.00000000          189.00000000          152.00000000          149.00000000          126.00000000          147.00000000           91.00000000          148.00000000 
       12351.82541070            1.00000000        66336.78125000       170951.39062500       383252.78125000       122700.39062500       136912.98437500         1483.00000000          140.00000000          123.00000000           67.00000000          151.00000000          186.00000000          189.00000000          152.00000000          149.00000000          126.00000000          147.00000000           91.00000000          148.00000000 
       12357.57820141            1.00000000        66228.78125000       170728.39062500       383304.78125000       123503.39062500       137018.98437500         1483.00000000          140.00000000          123.00000000           67.00000000          151.00000000          186.00000000          189.00000000          152.00000000          149.00000000          126.00000000          147.00000000           91.00000000          148.00000000 
       12363.33642376            1.00000000        66250.78125000       171139.39062500       384631.78125000       123657.39062500       137669.98437500         1483.00000000          140.00000000          123.00000000           67.00000000          151.00000000          186.00000000          189.00000000          152.00000000          149.00000000          126.00000000          147.00000000           91.00000000          148.00000000 
       12368.50014431            1.00000000        66230.79687500       170786.39062500       384382.81250000       123761.39843750       137676.00000000         1483.00000000          140.00000000          123.00000000           67.00000000          151.00000000          186.00000000          189.00000000          152.00000000          149.00000000          126.00000000          147.00000000           91.00000000          148.00000000 
       12374.33540604            1.00000000        66200.78906250       170875.39062500       385087.78125000       124056.39062500       137982.98437500         1483.00000000          140.00000000          123.00000000           67.00000000          151.00000000          186.00000000          189.00000000          152.00000000          149.00000000          126.00000000          147.00000000           91.00000000          148.00000000 
       12380.17624856            1.00000000        66029.79687500       170325.39062500       384410.81250000       123984.39843750       137952.00000000         1483.00000000          140.00000000          123.00000000           67.00000000          151.00000000          186.00000000          189.00000000          152.00000000          149.00000000          126.00000000          147.00000000           91.00000000          148.00000000 
       12386.42378294            1.00000000        66107.78125000       170482.39062500       385215.78125000       124110.39062500       138466.98437500         1483.00000000          140.00000000          123.00000000           67.00000000          151.00000000          186.00000000          189.00000000          152.00000000          149.00000000          126.00000000          147.00000000           91.00000000          148.00000000 
       12392.44348913            1.00000000        65988.78125000       170215.39062500       385205.78125000       124060.39062500       138643.98437500         1483.00000000          140.00000000          123.00000000           67.00000000          151.00000000          186.00000000          189.00000000          152.00000000          149.00000000          126.00000000          147.00000000           91.00000000          148.00000000 
       12398.50261809            1.00000000        65671.78125000       169788.39062500       384657.78125000       124054.39062500       138726.98437500         1483.00000000          140.00000000          123.00000000           67.00000000          151.00000000          186.00000000          189.00000000          152.00000000          149.00000000          126.00000000          147.00000000           91.00000000          148.00000000 
       12404.73538290            1.00000000        65804.78906250       169752.39062500       385138.78125000       124288.39062500       139268.98437500         1483.00000000          140.00000000          123.00000000           67.00000000          151.00000000          186.00000000          189.00000000          152.00000000          149.00000000          126.00000000          147.00000000           91.00000000          148.00000000 
       12410.70601918            1.00000000        65823.78125000       169675.39062500       385480.78125000       124403.39062500       139740.98437500         1483.00000000          140.00000000          123.00000000           67.00000000          151.00000000          186.00000000          189.00000000          152.00000000          149.00000000          126.00000000          147.00000000           91.00000000          148.00000000 
       12416.98481623            1.00000000        65709.78125000       169401.39062500       385321.78125000       124542.39062500       140125.98437500         1483.00000000          140.00000000          123.00000000           67.00000000          151.00000000          186.00000000          189.00000000          152.00000000          149.00000000          126.00000000          147.00000000           91.00000000          148.00000000 
       12422.63115131            1.00000000        65595.78125000       169192.39062500       385380.78125000       124215.39062500       140555.98437500         1483.00000000          140.00000000          123.00000000           67.00000000          151.00000000          186.00000000          189.00000000          152.00000000          149.00000000          126.00000000          147.00000000           91.00000000          148.00000000 
       12428.78754566            1.00000000        65562.78906250       169182.39062500       385942.78125000       124489.39062500       141160.98437500         1483.00000000          140.00000000          123.00000000           67.00000000          151.00000000          186.00000000          189.00000000          152.00000000          149.00000000          126.00000000          147.00000000           91.00000000          148.00000000 
       12435.15228089            1.00000000        65650.78125000       169481.39062500       386988.78125000       124921.39062500       141983.98437500         1483.00000000          140.00000000          123.00000000           67.00000000          151.00000000          186.00000000          189.00000000          152.00000000          149.00000000          126.00000000          147.00000000           91.00000000          148.00000000 
       12441.25380236            1.00000000        65527.78906250       168991.39062500       386428.78125000       124484.39062500       142169.98437500         1483.00000000          140.00000000          123.00000000           67.00000000          151.00000000          186.00000000          189.00000000          152.00000000          149.00000000          126.00000000          147.00000000           91.00000000          148.00000000 
       12447.56395762            1.00000000        65218.78125000       167473.39062500       383628.78125000       123011.39062500       141451.98437500         1483.00000000          140.00000000          123.00000000           67.00000000          151.00000000          186.00000000          189.00000000          152.00000000          149.00000000          126.00000000          147.00000000           91.00000000          148.00000000 
       12454.01578635            1.00000000        65155.78906250       167996.39062500       385368.78125000       124484.39062500       142400.98437500         1483.00000000          140.00000000          123.00000000           67.00000000          151.00000000          186.00000000          189.00000000          152.00000000          149.00000000          126.00000000          147.00000000           91.00000000          148.00000000 
       12460.54205866            1.00000000        65341.78125000       168480.39062500       386856.78125000       125525.39062500       143170.98437500         1483.00000000          140.00000000          123.00000000           67.00000000          151.00000000          186.00000000          189.00000000          152.00000000          149.00000000          126.00000000          147.00000000           91.00000000          148.00000000 
       12467.21073954            1.00000000        65265.78906250       168293.39062500       386969.78125000       125685.39062500       143443.98437500         1483.00000000          140.00000000          123.00000000           67.00000000          151.00000000          186.00000000          189.00000000          152.00000000          149.00000000          126.00000000          147.00000000           91.00000000          148.00000000 
       12473.64931505            1.00000000        65097.78906250       168262.39062500       387526.78125000       124958.39062500       143889.98437500         1483.00000000          140.00000000          123.00000000           67.00000000          151.00000000          186.00000000          189.00000000          152.00000000          149.00000000          126.00000000          147.00000000           91.00000000          148.00000000 
       12480.23039346            1.00000000        65243.78906250       168170.39062500       387746.78125000       124986.39062500       144130.98437500         1483.00000000          140.00000000          123.00000000           67.00000000          151.00000000          186.00000000          189.00000000          152.00000000          149.00000000          126.00000000          147.00000000           91.00000000          148.00000000 
       12486.92044278            1.00000000        65034.78125000       167635.39062500       387155.78125000       125046.39062500       144176.98437500         1483.00000000          140.00000000          123.00000000           67.00000000          151.00000000          186.00000000          189.00000000          152.00000000          149.00000000          126.00000000          147.00000000           91.00000000          148.00000000 
       12493.71980661            1.00000000        64753.78125000       167511.39062500       387051.78125000       126597.39062500       144398.98437500         1483.00000000          140.00000000          123.00000000           67.00000000          151.00000000          186.00000000          189.00000000          152.00000000          149.00000000          126.00000000          147.00000000           91.00000000          148.00000000 
       12500.25425553            1.00000000        65024.78906250       167484.39062500       387856.78125000       126063.39062500       144985.98437500         1483.00000000          140.00000000          123.00000000           67.00000000          151.00000000          186.00000000          189.00000000          152.00000000          149.00000000          126.00000000          147.00000000           91.00000000          148.00000000 
       12506.72745606            1.00000000        64967.78906250       167297.39062500       387928.78125000       126078.39062500       145350.98437500         1483.00000000          140.00000000          123.00000000           67.00000000          151.00000000          186.00000000          189.00000000          152.00000000          149.00000000          126.00000000          147.00000000           91.00000000          148.00000000 
       12513.65106696            1.00000000        64995.79687500       167218.39062500       388293.81250000       126433.39843750       145938.00000000         1483.00000000          140.00000000          123.00000000           67.00000000          151.00000000          186.00000000          189.00000000          152.00000000          149.00000000          126.00000000          147.00000000           91.00000000          148.00000000 
       12520.58244610            1.00000000        64792.78125000       166672.39062500       387759.78125000       125891.39062500       146109.98437500         1483.00000000          140.00000000          123.00000000           67.00000000          151.00000000          186.00000000          189.00000000          152.00000000          149.00000000          126.00000000          147.00000000           91.00000000          148.00000000 
       12527.17959351            1.00000000        64762.78906250       166259.39062500       387267.78125000       126225.39062500       146457.98437500         1483.00000000          140.00000000          123.00000000           67.00000000          151.00000000          186.00000000          189.00000000          152.00000000          149.00000000          126.00000000          147.00000000           91.00000000          148.00000000 
       12533.78378565            1.00000000        64741.78125000       166240.39062500       387769.78125000       125997.39062500       146933.98437500         1483.00000000          140.00000000          123.00000000           67.00000000          151.00000000          186.00000000          189.00000000          152.00000000          149.00000000          126.00000000          147.00000000           91.00000000          148.00000000 
       12540.84060491            1.00000000        64650.78906250       166076.39062500       387986.78125000       126309.39062500       147510.98437500         1483.00000000          140.00000000          123.00000000           67.00000000          151.00000000          186.00000000          189.00000000          152.00000000          149.00000000          126.00000000          147.00000000           91.00000000          148.00000000 
       12547.83684666            1.00000000        64649.78125000       166051.39062500       388436.78125000       126554.39062500       148061.98437500         1483.00000000          140.00000000          123.00000000           67.00000000          151.00000000          186.00000000          189.00000000          152.00000000          149.00000000          126.00000000          147.00000000           91.00000000          148.00000000 
       12554.70358595            1.00000000        64608.78906250       165964.39062500       388815.78125000       126485.39062500       148545.98437500         1483.00000000          140.00000000          123.00000000           67.00000000          151.00000000          186.00000000          189.00000000          152.00000000          149.00000000          126.00000000          147.00000000           91.00000000          148.00000000 
       12561.54354991            1.00000000        64722.78125000       166181.39062500       389834.78125000       126874.39062500       149348.98437500         1483.00000000          140.00000000          123.00000000           67.00000000          151.00000000          186.00000000          189.00000000          152.00000000          149.00000000          126.00000000          147.00000000           91.00000000          148.00000000 
       12568.76979215            1.00000000        64713.78125000       166259.39062500       390687.78125000       127352.39062500       150026.98437500         1483.00000000          140.00000000          123.00000000           67.00000000          151.00000000          186.00000000          189.00000000          152.00000000          149.00000000          126.00000000          147.00000000           91.00000000          148.00000000 
       12575.83210688            1.00000000        64766.78125000       166348.39062500       391495.78125000       127824.39062500       150661.98437500         1483.00000000          140.00000000          123.00000000           67.00000000          151.00000000          186.00000000          189.00000000          152.00000000          149.00000000          126.00000000          147.00000000           91.00000000          148.00000000 
       12582.83344536            1.00000000        64701.78125000       166257.39062500       391760.78125000       127945.39062500       151026.98437500         1483.00000000          140.00000000          123.00000000           67.00000000          151.00000000          186.00000000          189.00000000          152.00000000          149.00000000          126.00000000          147.00000000           91.00000000          148.00000000 
       12589.77358763            1.00000000        64656.79687500       166086.39062500       392027.81250000       128110.39843750       151372.00000000         1483.00000000          140.00000000          123.00000000           67.00000000          151.00000000          186.00000000          189.00000000          152.00000000          149.00000000          126.00000000          147.00000000           91.00000000          148.00000000 
       12597.13653244            1.00000000        64538.78906250       165878.39062500       392129.78125000       128330.39062500       151658.98437500         1483.00000000          140.00000000          123.00000000           67.00000000          151.00000000          186.00000000          189.00000000          152.00000000          149.00000000          126.00000000          147.00000000           91.00000000          148.00000000 
       12604.50820344            1.00000000        64348.79687500       165412.39062500       391658.81250000       127818.39843750       151834.00000000         1483.00000000          140.00000000          123.00000000           67.00000000          151.00000000          186.00000000          189.00000000          152.00000000          149.00000000          126.00000000          147.00000000           91.00000000          148.00000000 
       12611.57659060            1.00000000        64452.78125000       165505.39062500       392361.78125000       128345.39062500       152430.98437500         1483.00000000          140.00000000          123.00000000           67.00000000          151.00000000          186.00000000          189.00000000          152.00000000          149.00000000          126.00000000          147.00000000           91.00000000          148.00000000 
       12618.72242635            1.00000000        64353.78906250       165184.39062500       392277.78125000       128176.39062500       152777.98437500         1483.00000000          140.00000000          123.00000000           67.00000000          151.00000000          186.00000000          189.00000000          152.00000000          149.00000000          126.00000000          147.00000000           91.00000000          148.00000000 
       12626.18920898            1.00000000        64281.78125000       165067.39062500       392551.78125000       128441.39062500       153294.98437500         1483.00000000          140.00000000          123.00000000           67.00000000          151.00000000          186.00000000          189.00000000          152.00000000          149.00000000          126.00000000          147.00000000           91.00000000          148.00000000 
       12633.52577933            1.00000000        64221.78906250       165058.39062500       393089.78125000       128620.39062500       153934.98437500         1483.00000000          140.00000000          123.00000000           67.00000000          151.00000000          186.00000000          189.00000000          152.00000000          149.00000000          126.00000000          147.00000000           91.00000000          148.00000000 
       12640.76649297            1.00000000        64215.78125000       164770.39062500       393063.78125000       128613.39062500       154416.98437500         1483.00000000          140.00000000          123.00000000           67.00000000          151.00000000          186.00000000          189.00000000          152.00000000          149.00000000          126.00000000          147.00000000           91.00000000          148.00000000 
       12647.98074373            1.00000000        64091.78125000       164446.39062500       392815.78125000       128540.39062500       154754.98437500         1483.00000000          140.00000000          123.00000000           67.00000000          151.00000000          186.00000000          189.00000000          152.00000000          149.00000000          126.00000000          147.00000000           91.00000000          148.00000000 
       12655.41281211            1.00000000        64075.78125000       164382.39062500       393206.78125000       128592.39062500       155378.98437500         1483.00000000          140.00000000          123.00000000           67.00000000          151.00000000          186.00000000          189.00000000          152.00000000          149.00000000          126.00000000          147.00000000           91.00000000          148.00000000 
       12663.06346097            1.00000000        63992.78906250       164122.39062500       393135.78125000       128945.39062500       155723.98437500         1483.00000000          140.00000000          123.00000000           67.00000000          151.00000000          186.00000000          189.00000000          152.00000000          149.00000000          126.00000000          147.00000000           91.00000000          148.00000000 
       12670.16352748            1.00000000        63897.78125000       164041.39062500       393467.78125000       129157.39062500       156274.98437500         1483.00000000          140.00000000          123.00000000           67.00000000          151.00000000          186.00000000          189.00000000          152.00000000          149.00000000          126.00000000          147.00000000           91.00000000          148.00000000 
       12678.07752407            1.00000000        63830.78906250       163734.39062500       393369.78125000       129300.39062500       156672.98437500         1483.00000000          140.00000000          123.00000000           67.00000000          151.00000000          186.00000000          189.00000000          152.00000000          149.00000000          126.00000000          147.00000000           91.00000000          148.00000000 
       12685.61562250            1.00000000        63580.78125000       162650.39062500       391272.78125000       129073.39062500       156268.98437500         1483.00000000          140.00000000          123.00000000           67.00000000          151.00000000          186.00000000          189.00000000          152.00000000          149.00000000          126.00000000          147.00000000           91.00000000          148.00000000 
       12693.54918127            1.00000000        63743.78906250       163712.39062500       394433.78125000       129752.39062500       157858.98437500         1483.00000000          140.00000000          123.00000000           67.00000000          151.00000000          186.00000000          189.00000000          152.00000000          149.00000000          126.00000000          147.00000000           91.00000000          148.00000000 
       12701.14109301            1.00000000        63604.78125000       163253.39062500       393818.78125000       129710.39062500       158005.98437500         1483.00000000          140.00000000          123.00000000           67.00000000          151.00000000          186.00000000          189.00000000          152.00000000          149.00000000          126.00000000          147.00000000           91.00000000          148.00000000 
       12708.98869087            1.00000000        63607.78906250       163368.39062500       394597.78125000       130345.39062500       158659.98437500         1483.00000000          140.00000000          123.00000000           67.00000000          151.00000000          186.00000000          189.00000000          152.00000000          149.00000000          126.00000000          147.00000000           91.00000000          148.00000000 
       12716.91662738            1.00000000        63472.78125000       163053.39062500       394260.78125000       130274.39062500       158987.98437500         1483.00000000          140.00000000          123.00000000           67.00000000          151.00000000          186.00000000          189.00000000          152.00000000          149.00000000          126.00000000          147.00000000           91.00000000          148.00000000 
       12724.67807574            1.00000000        63540.78125000       163222.39062500       395337.78125000       130809.39062500       159697.98437500         1483.00000000          140.00000000          123.00000000           67.00000000          151.00000000          186.00000000          189.00000000          152.00000000          149.00000000          126.00000000          147.00000000           91.00000000          148.00000000 
       12732.20171275            1.00000000        63333.78125000       162711.39062500       394796.78125000       130442.39062500       159807.98437500         1483.00000000          140.00000000          123.00000000           67.00000000          151.00000000          186.00000000          189.00000000          152.00000000          149.00000000          126.00000000          147.00000000           91.00000000          148.00000000 
       12739.98206702            1.00000000        63282.78125000       162812.39062500       395424.78125000       130939.39062500       160502.98437500         1483.00000000          140.00000000          123.00000000           67.00000000          151.00000000          186.00000000          189.00000000          152.00000000          149.00000000          126.00000000          147.00000000           91.00000000          148.00000000 
       12747.94921067            1.00000000        63302.78906250       162857.39062500       396130.78125000       130797.39062500       161152.98437500         1483.00000000          140.00000000          123.00000000           67.00000000          151.00000000          186.00000000          189.00000000          152.00000000          149.00000000          126.00000000          147.00000000           91.00000000          148.00000000 
       12755.32337075            1.00000000        63213.78125000       162531.39062500       395859.78125000       131141.39062500       161527.98437500         1483.00000000          140.00000000          123.00000000           67.00000000          151.00000000          186.00000000          189.00000000          152.00000000          149.00000000          126.00000000          147.00000000           91.00000000          148.00000000 
       12763.62963080            1.00000000        63169.78906250       162329.39062500       396056.78125000       131463.39062500       162069.98437500         1483.00000000          140.00000000          123.00000000           67.00000000          151.00000000          186.00000000          189.00000000          152.00000000          149.00000000          126.00000000          147.00000000           91.00000000          148.00000000 
       12771.84014874            1.00000000        63167.77343750       162462.37500000       396937.78125000       131698.37500000       162876.98437500         1483.00000000          140.00000000          123.00000000           67.00000000          151.00000000          186.00000000          189.00000000          152.00000000          149.00000000          126.00000000          147.00000000           91.00000000          148.00000000 
       12779.77647005            1.00000000        63119.78906250       162250.39062500       397069.78125000       131867.39062500       163434.98437500         1483.00000000          140.00000000          123.00000000           67.00000000          151.00000000          186.00000000          189.00000000          152.00000000          149.00000000          126.00000000          147.00000000           91.00000000          148.00000000 
       12787.65146994            1.00000000        62990.78125000       162060.39062500       397098.78125000       132124.39062500       163916.98437500         1483.00000000          140.00000000          123.00000000           67.00000000          151.00000000          186.00000000          189.00000000          152.00000000          149.00000000          126.00000000          147.00000000           91.00000000          148.00000000 
       12795.92901491            1.00000000        62935.78906250       161954.39062500       397466.78125000       131974.39062500       164563.98437500         1483.00000000          140.00000000          123.00000000           67.00000000          151.00000000          186.00000000          189.00000000          152.00000000          149.00000000          126.00000000          147.00000000           91.00000000          148.00000000 
       12803.96717432            1.00000000        62783.78125000       161754.39062500       397657.78125000       132323.39062500       165004.98437500         1483.00000000          140.00000000          123.00000000           67.00000000          151.00000000          186.00000000          189.00000000          152.00000000          149.00000000          126.00000000          147.00000000           91.00000000          148.00000000 
       12811.65763887            1.00000000        62780.78906250       161689.39062500       397993.78125000       132337.39062500       165648.98437500         1483.00000000          140.00000000          123.00000000           67.00000000          151.00000000          186.00000000          189.00000000          152.00000000          149.00000000          126.00000000          147.00000000           91.00000000          148.00000000 
       12819.82333106            1.00000000        62730.78125000       161569.39062500       398417.78125000       132499.39062500       166232.98437500         1483.00000000          140.00000000          123.00000000           67.00000000          151.00000000          186.00000000          189.00000000          152.00000000          149.00000000          126.00000000          147.00000000           91.00000000          148.00000000 
       12828.14310292            1.00000000        62734.78125000       161541.39062500       398956.78125000       132878.39062500       167001.98437500         1483.00000000          140.00000000          123.00000000           67.00000000          151.00000000          186.00000000          189.00000000          152.00000000          149.00000000          126.00000000          147.00000000           91.00000000          148.00000000 
       12836.65347380            1.00000000        62560.78906250       161326.39062500       399153.78125000       133127.39062500       167419.98437500         1483.00000000          140.00000000          123.00000000           67.00000000          151.00000000          186.00000000          189.00000000          152.00000000          149.00000000          126.00000000          147.00000000           91.00000000          148.00000000 
       12844.85145930            1.00000000        62503.78125000       161178.39062500       399268.78125000       133420.39062500       167879.98437500         1483.00000000          140.00000000          123.00000000           67.00000000          151.00000000          186.00000000          189.00000000          152.00000000          149.00000000          126.00000000          147.00000000           91.00000000          148.00000000 
       12853.45634690            1.00000000        62466.78125000       161004.39062500       399446.78125000       133541.39062500       168409.98437500         1483.00000000          140.00000000          123.00000000           67.00000000          151.00000000          186.00000000          189.00000000          152.00000000          149.00000000          126.00000000          147.00000000           91.00000000          148.00000000 
       12861.67607624            1.00000000        62489.78125000       161073.39062500       400223.78125000       133724.39062500       169159.98437500         1483.00000000          140.00000000          123.00000000           67.00000000          151.00000000          186.00000000          189.00000000          152.00000000          149.00000000          126.00000000          147.00000000           91.00000000          148.00000000 
       12869.50912839            1.00000000        62394.78125000       160976.39062500       400558.78125000       133634.39062500       169742.98437500         1483.00000000          140.00000000          123.00000000           67.00000000          151.00000000          186.00000000          189.00000000          152.00000000          149.00000000          126.00000000          147.00000000           91.00000000          148.00000000 
       12878.36451079            1.00000000        62309.78125000       160731.39062500       400610.78125000       133600.39062500       170238.98437500         1483.00000000          140.00000000          123.00000000           67.00000000          151.00000000          186.00000000          189.00000000          152.00000000          149.00000000          126.00000000          147.00000000           91.00000000          148.00000000 
       12887.30467600            1.00000000        62230.78125000       160531.39062500       400845.78125000       134067.39062500       170800.98437500         1483.00000000          140.00000000          123.00000000           67.00000000          151.00000000          186.00000000          189.00000000          152.00000000          149.00000000          126.00000000          147.00000000           91.00000000          148.00000000 
       12889.73190742            1.00000000        62277.78125000       160505.39062500       400920.78125000       134259.39062500       170991.98437500         1483.00000000          140.00000000          123.00000000           67.00000000          151.00000000          186.00000000          189.00000000          152.00000000          149.00000000          126.00000000          147.00000000           91.00000000          148.00000000 
