# Athena data file -- Athena version 0.8.050
# Saving 40-60 as chi(k)
# .  Element=Ag   Edge=K
# Background parameters
# .  E0=25518.609  Eshift=0.000  Rbkg=1.400
# .  Standard=0: None
# .  Kweight=2.0  Edge step=5.105
# .  Fixed step=no    Flatten=yes
# .  Pre-edge range: [ -200.000 : -60.000 ]
# .  Pre-edge line: -10.424 + 0.00041608 * E
# .  Normalization range: [ 50.000 : 982.587 ]
# .  Post-edge polynomial: -64.935 + 0.0054148 * E -1.0434e-07 * E^2
# .  Spline range: [ 0.000 : 746.330 ]   Clamps: None/Strong
# Foreward FT parameters
# .  Kweight=2   Window=kaiser-bessel   Phase correction=no
# .  k-range: [ 2.000 : 11.000 ]   dk=2.00
# Backward FT parameters
# .  R-range: [ 1.000 : 3.000 ]
# .  dR=0.00   Window=kaiser-bessel
# Plotting parameters
# .  Multiplier=1   Y-offset=0.000
# .
# Merge in e space of:
# ** /home/bruce/Data/ANL/20BM/2006.07/AuAg_Standards/Au_Ag_40-60.0005
# ** /home/bruce/Data/ANL/20BM/2006.07/AuAg_Standards/Au_Ag_40-60.0006
# ** /home/bruce/Data/ANL/20BM/2006.07/AuAg_Standards/Au_Ag_40-60.0007
# ** /home/bruce/Data/ANL/20BM/2006.07/AuAg_Standards/Au_Ag_40-60.0008
#------------------------
#   k         chi       win
  0.0000000       0.97185341        0.0000000
  0.50000000E-01   0.91313085        0.0000000
  0.10000000       0.85440828        0.0000000
  0.15000000       0.79568571        0.0000000
  0.20000000       0.73696314        0.0000000
  0.25000000       0.67824057        0.0000000
  0.30000000       0.61951800        0.0000000
  0.35000000       0.56079543        0.0000000
  0.40000000       0.50207287        0.0000000
  0.45000000       0.44335030        0.0000000
  0.50000000       0.38462773        0.0000000
  0.55000000       0.32590516        0.0000000
  0.60000000       0.26718259        0.0000000
  0.65000000       0.20846002        0.0000000
  0.70000000       0.14973746        0.0000000
  0.75000000       0.91014888E-01    0.0000000
  0.80000000       0.32292320E-01    0.0000000
  0.85000000       0.10347237E-02    0.0000000
  0.90000000      -0.24348822E-01    0.0000000
  0.95000000      -0.49732368E-01    0.0000000
  1.0000000      -0.75115914E-01    0.0000000
  1.0500000      -0.10049946       0.44665195
  1.1000000      -0.92434484E-01   0.45462608
  1.1500000      -0.83347356E-01   0.46259713
  1.2000000      -0.74260228E-01   0.47056355
  1.2500000      -0.61846254E-01   0.47852379
  1.3000000      -0.43156874E-01   0.48647630
  1.3500000      -0.24467493E-01   0.49441952
  1.4000000      -0.57781130E-02   0.50235189
  1.4500000       0.12138921E-01   0.51027187
  1.5000000       0.23278155E-01   0.51817789
  1.5500000       0.31739136E-01   0.52606839
  1.6000000       0.37518939E-01   0.53394181
  1.6500000       0.40518270E-01   0.54179660
  1.7000000       0.41165191E-01   0.54963119
  1.7500000       0.39612541E-01   0.55744403
  1.8000000       0.36000346E-01   0.56523356
  1.8500000       0.31050313E-01   0.57299823
  1.9000000       0.25723707E-01   0.58073648
  1.9500000       0.19531048E-01   0.58844676
  2.0000000       0.11651663E-01   0.59612753
  2.0500000       0.19770690E-02   0.60377724
  2.1000000      -0.95784238E-02   0.61139435
  2.1500000      -0.22527124E-01   0.61897732
  2.2000000      -0.33979746E-01   0.62652463
  2.2500000      -0.44055703E-01   0.63403474
  2.3000000      -0.53738723E-01   0.64150613
  2.3500000      -0.59361906E-01   0.64893729
  2.4000000      -0.59164032E-01   0.65632670
  2.4500000      -0.53836258E-01   0.66367286
  2.5000000      -0.46182633E-01   0.67097426
  2.5500000      -0.35660511E-01   0.67822943
  2.6000000      -0.20091693E-01   0.68543687
  2.6500000       0.10455052E-02   0.69259511
  2.7000000       0.23228571E-01   0.69970268
  2.7500000       0.42234087E-01   0.70675812
  2.8000000       0.56779881E-01   0.71375998
  2.8500000       0.69861675E-01   0.72070681
  2.9000000       0.79117601E-01   0.72759720
  2.9500000       0.80664492E-01   0.73442970
  3.0000000       0.76446217E-01   0.74120291
  3.0500000       0.66162521E-01   0.74791543
  3.1000000       0.49122126E-01   0.75456587
  3.1500000       0.25814010E-01   0.76115285
  3.2000000       0.33849888E-02   0.76767500
  3.2500000      -0.17873374E-01   0.77413097
  3.3000000      -0.38456255E-01   0.78051940
  3.3500000      -0.52932996E-01   0.78683898
  3.4000000      -0.59493243E-01   0.79308838
  3.4500000      -0.60073884E-01   0.79926630
  3.5000000      -0.57518542E-01   0.80537145
  3.5500000      -0.52717011E-01   0.81140255
  3.6000000      -0.45005457E-01   0.81735834
  3.6500000      -0.35044977E-01   0.82323757
  3.7000000      -0.28093095E-01   0.82903901
  3.7500000      -0.22275193E-01   0.83476144
  3.8000000      -0.13991306E-01   0.84040366
  3.8500000      -0.41141903E-02   0.84596447
  3.9000000      -0.41354017E-03   0.85144273
  3.9500000       0.60340358E-02   0.85683726
  4.0000000       0.14609846E-01   0.86214693
  4.0500000       0.24400090E-01   0.86737062
  4.1000000       0.33732259E-01   0.87250723
  4.1500000       0.41802816E-01   0.87755568
  4.2000000       0.49260316E-01   0.88251489
  4.2500000       0.51743346E-01   0.88738382
  4.3000000       0.48819163E-01   0.89216144
  4.3500000       0.39179643E-01   0.89684673
  4.4000000       0.27201472E-01   0.90143870
  4.4500000       0.10574680E-01   0.90593639
  4.5000000      -0.72575506E-02   0.91033883
  4.5500000      -0.15535061E-01   0.91464508
  4.6000000      -0.26939327E-01   0.91885424
  4.6500000      -0.30251498E-01   0.92296541
  4.7000000      -0.29400738E-01   0.92697772
  4.7500000      -0.26725606E-01   0.93089031
  4.8000000      -0.22546326E-01   0.93470234
  4.8500000      -0.18797311E-01   0.93841302
  4.9000000      -0.13500719E-01   0.94202153
  4.9500000      -0.10555731E-01   0.94552713
  5.0000000      -0.44468393E-02   0.94892905
  5.0500000      -0.13791852E-03   0.95222658
  5.1000000       0.21696081E-02   0.95541900
  5.1500000       0.35110336E-02   0.95850564
  5.2000000       0.43345724E-02   0.96148584
  5.2500000       0.53560021E-02   0.96435896
  5.3000000       0.61830311E-02   0.96712438
  5.3500000       0.87473310E-02   0.96978152
  5.4000000       0.12649541E-01   0.97232980
  5.4500000       0.98978931E-02   0.97476869
  5.5000000       0.76913820E-02   0.97709765
  5.5500000       0.42326710E-02   0.97931619
  5.6000000       0.10792052E-02   0.98142384
  5.6500000      -0.12318821E-02   0.98342013
  5.7000000      -0.33690997E-02   0.98530466
  5.7500000      -0.52730669E-02   0.98707700
  5.8000000      -0.70232325E-02   0.98873679
  5.8500000      -0.76064757E-02   0.99028366
  5.9000000      -0.65493920E-02   0.99171728
  5.9500000      -0.39871729E-02   0.99303735
  6.0000000      -0.15886573E-02   0.99424358
  6.0500000       0.24119795E-02   0.99533571
  6.1000000       0.40387843E-02   0.99631352
  6.1500000       0.38362121E-02   0.99717678
  6.2000000       0.35432504E-02   0.99792531
  6.2500000       0.54782867E-02   0.99855896
  6.3000000       0.50422826E-02   0.99907759
  6.3500000       0.28182756E-02   0.99948108
  6.4000000       0.24598922E-02   0.99976935
  6.4500000       0.17266698E-02   0.99994233
  6.5000000       0.71061084E-03    1.0000000
  6.5500000       0.20208647E-03   0.99994233
  6.6000000      -0.15493399E-02   0.99976935
  6.6500000      -0.22601422E-02   0.99948108
  6.7000000      -0.20227135E-02   0.99907759
  6.7500000      -0.28829374E-02   0.99855896
  6.8000000      -0.53543318E-02   0.99792531
  6.8500000      -0.69645584E-02   0.99717678
  6.9000000      -0.68275771E-02   0.99631352
  6.9500000      -0.56577587E-02   0.99533571
  7.0000000      -0.35548781E-02   0.99424358
  7.0500000       0.21604477E-03   0.99303735
  7.1000000       0.24181549E-03   0.99171728
  7.1500000      -0.32126804E-03   0.99028366
  7.2000000       0.25552327E-02   0.98873679
  7.2500000       0.53944952E-02   0.98707700
  7.3000000       0.61282565E-02   0.98530466
  7.3500000       0.55987349E-02   0.98342013
  7.4000000       0.49052252E-02   0.98142384
  7.4500000       0.72756552E-02   0.97931619
  7.5000000       0.88752703E-02   0.97709765
  7.5500000       0.63633698E-02   0.97476869
  7.6000000       0.42979455E-02   0.97232980
  7.6500000       0.44476836E-02   0.96978152
  7.7000000       0.31195461E-02   0.96712438
  7.7500000      -0.21235537E-02   0.96435896
  7.8000000      -0.25321974E-02   0.96148584
  7.8500000      -0.58943148E-02   0.95850564
  7.9000000      -0.84461459E-02   0.95541900
  7.9500000      -0.76736827E-02   0.95222658
  8.0000000      -0.70279148E-02   0.94892905
  8.0500000      -0.71912980E-02   0.94552713
  8.1000000      -0.85698288E-02   0.94202153
  8.1500000      -0.77405452E-02   0.93841302
  8.2000000      -0.52722334E-02   0.93470234
  8.2500000      -0.24726720E-02   0.93089031
  8.3000000      -0.85826759E-03   0.92697772
  8.3500000      -0.11047235E-02   0.92296541
  8.4000000      -0.19848913E-03   0.91885424
  8.4500000       0.12413979E-02   0.91464508
  8.5000000       0.23185092E-02   0.91033883
  8.5500000       0.48496387E-02   0.90593639
  8.6000000       0.60340082E-02   0.90143870
  8.6500000       0.60386574E-02   0.89684673
  8.7000000       0.76157018E-02   0.89216144
  8.7500000       0.77073097E-02   0.88738382
  8.8000000       0.71851407E-02   0.88251489
  8.8500000       0.65591753E-02   0.87755568
  8.9000000       0.49305291E-02   0.87250723
  8.9500000       0.20819664E-02   0.86737062
  9.0000000      -0.18525347E-02   0.86214693
  9.0500000      -0.15754803E-02   0.85683726
  9.1000000      -0.26302293E-02   0.85144273
  9.1500000      -0.41631598E-02   0.84596447
  9.2000000      -0.46231601E-02   0.84040366
  9.2500000      -0.45436127E-02   0.83476144
  9.3000000      -0.43030001E-02   0.82903901
  9.3500000      -0.49193351E-02   0.82323757
  9.4000000      -0.33739253E-02   0.81735834
  9.4500000      -0.82635770E-03   0.81140255
  9.5000000      -0.53056218E-03   0.80537145
  9.5500000      -0.28952814E-02   0.79926630
  9.6000000      -0.18708042E-02   0.79308838
  9.6500000      -0.18973454E-03   0.78683898
  9.7000000       0.31836714E-03   0.78051940
  9.7500000       0.82841212E-03   0.77413097
  9.8000000       0.15952143E-02   0.76767500
  9.8500000       0.25106528E-02   0.76115285
  9.9000000       0.28790341E-02   0.75456587
  9.9500000       0.28288414E-02   0.74791543
  10.000000       0.33155729E-02   0.74120291
  10.050000       0.39456200E-02   0.73442970
  10.100000       0.39542999E-02   0.72759720
  10.150000       0.23693618E-02   0.72070681
  10.200000       0.98601673E-03   0.71375998
  10.250000       0.52370360E-03   0.70675812
  10.300000      -0.13948141E-02   0.69970268
  10.350000      -0.28151726E-02   0.69259511
  10.400000      -0.34675373E-02   0.68543687
  10.450000      -0.33832303E-02   0.67822943
  10.500000      -0.35676033E-02   0.67097426
  10.550000      -0.30482852E-02   0.66367286
  10.600000       0.25688259E-03   0.65632670
  10.650000      -0.18723308E-03   0.64893729
  10.700000      -0.15483714E-02   0.64150613
  10.750000      -0.23040376E-02   0.63403474
  10.800000      -0.24042418E-03   0.62652463
  10.850000       0.65007106E-03   0.61897732
  10.900000       0.80217659E-04   0.61139435
  10.950000      -0.48641505E-03   0.60377724
  11.000000      -0.32736801E-03   0.59612753
  11.050000       0.13810030E-02   0.58844676
  11.100000       0.23975713E-02   0.58073648
  11.150000       0.72498078E-03   0.57299823
  11.200000       0.87491805E-03   0.56523356
  11.250000       0.17997210E-02   0.55744403
  11.300000       0.13176883E-02   0.54963119
  11.350000       0.14118796E-02   0.54179660
  11.400000       0.21289951E-02   0.53394181
  11.450000       0.16030711E-02   0.52606839
  11.500000      -0.41384380E-04   0.51817789
  11.550000       0.60035520E-03   0.51027187
  11.600000       0.52751491E-03   0.50235189
  11.650000      -0.21936355E-03   0.49441952
  11.700000      -0.74321824E-03   0.48647630
  11.750000      -0.54367493E-03   0.47852379
  11.800000      -0.11131478E-02   0.47056355
  11.850000      -0.24391982E-02   0.46259713
  11.900000      -0.10779136E-02   0.45462608
  11.950000       0.73001560E-04   0.44665195
  12.000000      -0.44047567E-03    0.0000000
  12.050000      -0.71412449E-03    0.0000000
  12.100000      -0.14022692E-03    0.0000000
  12.150000       0.19745744E-03    0.0000000
  12.200000      -0.10216911E-02    0.0000000
  12.250000      -0.12585921E-02    0.0000000
  12.300000      -0.55008404E-03    0.0000000
  12.350000       0.21758366E-03    0.0000000
  12.400000       0.32329416E-03    0.0000000
  12.450000       0.26621433E-03    0.0000000
  12.500000       0.56893670E-03    0.0000000
  12.550000       0.17921181E-02    0.0000000
  12.600000       0.11314838E-02    0.0000000
  12.650000       0.26354644E-03    0.0000000
  12.700000      -0.94482224E-03    0.0000000
  12.750000      -0.24652708E-02    0.0000000
  12.800000      -0.86760399E-03    0.0000000
  12.850000       0.31260326E-03    0.0000000
  12.900000       0.46354982E-03    0.0000000
  12.950000       0.11424571E-02    0.0000000
  13.000000      -0.42300336E-03    0.0000000
  13.050000      -0.12159165E-02    0.0000000
  13.100000       0.57235523E-03    0.0000000
  13.150000       0.10860234E-02    0.0000000
  13.200000       0.88658416E-03    0.0000000
  13.250000       0.73440230E-03    0.0000000
  13.300000       0.46923328E-03    0.0000000
  13.350000       0.38431942E-03    0.0000000
  13.400000       0.51080866E-03    0.0000000
  13.450000       0.78697599E-03    0.0000000
  13.500000      -0.19727689E-03    0.0000000
  13.550000       0.35937966E-03    0.0000000
  13.600000       0.13522994E-02    0.0000000
  13.650000      -0.76634908E-04    0.0000000
  13.700000      -0.42945635E-03    0.0000000
  13.750000      -0.14920511E-03    0.0000000
  13.800000      -0.46551910E-03    0.0000000
  13.850000      -0.14889879E-02    0.0000000
  13.900000      -0.22318729E-02    0.0000000
  13.950000      -0.15417137E-02    0.0000000
  14.000000       0.40126159E-03    0.0000000
  14.050000       0.11376198E-03    0.0000000
  14.100000      -0.57801580E-04    0.0000000
  14.150000        0.0000000        0.0000000
  14.200000        0.0000000        0.0000000
  14.250000        0.0000000        0.0000000
  14.300000        0.0000000        0.0000000
  14.350000        0.0000000        0.0000000
  14.400000        0.0000000        0.0000000
  14.450000        0.0000000        0.0000000
  14.500000        0.0000000        0.0000000
  14.550000        0.0000000        0.0000000
  14.600000        0.0000000        0.0000000
  14.650000        0.0000000        0.0000000
  14.700000        0.0000000        0.0000000
  14.750000        0.0000000        0.0000000
