# 1-D Scan File created by LabVIEW Control Panel  10/29/2005  11:17:00 AM; Scan time 0 hrs 6 min 41 sec. 
#
# Beamline 20 BM 
#
# User Comment:
# gold cynanide pellet
# N2 in I0, I1, I3 (ref)
# Ar in I2-IF
#
#
# Amplifier Sensitivities:
# Preslit: 500 pA/V  I0: 5 nA/V  I1: 2 nA/V  I3: 1 nA/V  I2-IF: 200 pA/V  
#
# Analog Input Voltages at start/end of scan:
# Preslit: 0.820/0.736  I0: 1.923/1.706  I1: 2.472/1.269  I3: 3.509/1.134  I2-IF: 0.496/2.295  
#
# Mono Info:
# 
#
# ID Info:
# 
#
# Motor Positions:
# 
#
# Detector Names/PVs:
# Preslit/pncbm:scaler1_netA.B  I0/pncbm:scaler1_netA.C  I1/pncbm:scaler1_netA.D  I2-IF/pncbm:scaler1_netA.F  I3/pncbm:scaler1_netA.E  
# As_SUM/pncaux:dxpCalc1.VAL  DXP12:0:As/pncaux:dxp_mca0.R0  DXP12:1:As/pncaux:dxp_mca1.R0  DXP12:2:As/pncaux:dxp_mca2.R0  DXP12:3:As/pncaux:dxp_mca3.R0  
# DXP12:4:As/pncaux:dxp_mca4.R0  DXP12:5:As/pncaux:dxp_mca5.R0  DXP12:6:As/pncaux:dxp_mca6.R0  DXP12:7:As/pncaux:dxp_mca7.R0  DXP12:8:As/pncaux:dxp_mca8.R0  
# DXP12:9:As/pncaux:dxp_mca9.R0  DXP12:10:As/pncaux:dxp_mca10.R0  DXP12:11:As/pncaux:dxp_mca11.R0  
#
# Positioner names/Drive PVs/Readback PVs:
# Mono Energy */pncbm:monoE.VAL/pncbm:EnctoE.VAL  Scaler preset time */pncbm:scaler1.TP/  
#
# Column Headings:
#Mono Energy *        Scaler preset time * Preslit              I0                   I1                   I2-IF                I3                   As_SUM               DXP12:0:As           DXP12:1:As           DXP12:2:As           DXP12:3:As           DXP12:4:As           DXP12:5:As           DXP12:6:As           DXP12:7:As           DXP12:8:As           DXP12:9:As           DXP12:10:As          DXP12:11:As          
       11719.81242314            1.00000000        72519.58593750       186564.18750000       235831.39062500        31966.58593750       326788.96875000         1483.00000000          140.00000000          123.00000000           67.00000000          151.00000000          186.00000000          189.00000000          152.00000000          149.00000000          126.00000000          147.00000000           91.00000000          148.00000000 
       11729.95046360            1.00000000        72515.58593750       186901.18750000       237159.39062500        32254.59179687       329573.00000000         1483.00000000          140.00000000          123.00000000           67.00000000          151.00000000          186.00000000          189.00000000          152.00000000          149.00000000          126.00000000          147.00000000           91.00000000          148.00000000 
       11739.53663680            1.00000000        72400.58593750       186609.18750000       237628.39062500        32257.58593750       331035.96875000         1483.00000000          140.00000000          123.00000000           67.00000000          151.00000000          186.00000000          189.00000000          152.00000000          149.00000000          126.00000000          147.00000000           91.00000000          148.00000000 
       11749.94962536            1.00000000        72226.59375000       186467.20312500       238344.39062500        32324.59765625       332916.00000000         1483.00000000          140.00000000          123.00000000           67.00000000          151.00000000          186.00000000          189.00000000          152.00000000          149.00000000          126.00000000          147.00000000           91.00000000          148.00000000 
       11760.11057140            1.00000000        72323.58593750       186550.18750000       239348.39062500        32516.58593750       335135.96875000         1483.00000000          140.00000000          123.00000000           67.00000000          151.00000000          186.00000000          189.00000000          152.00000000          149.00000000          126.00000000          147.00000000           91.00000000          148.00000000 
       11769.62629381            1.00000000        72105.58593750       186092.18750000       239633.39062500        32533.58593750       336260.96875000         1483.00000000          140.00000000          123.00000000           67.00000000          151.00000000          186.00000000          189.00000000          152.00000000          149.00000000          126.00000000          147.00000000           91.00000000          148.00000000 
       11780.33507651            1.00000000        72136.58593750       186403.18750000       240860.39062500        32722.58593750       338803.96875000         1483.00000000          140.00000000          123.00000000           67.00000000          151.00000000          186.00000000          189.00000000          152.00000000          149.00000000          126.00000000          147.00000000           91.00000000          148.00000000 
       11789.70259048            1.00000000        71940.58593750       186219.18750000       241438.39062500        32960.59375000       340564.00000000         1483.00000000          140.00000000          123.00000000           67.00000000          151.00000000          186.00000000          189.00000000          152.00000000          149.00000000          126.00000000          147.00000000           91.00000000          148.00000000 
       11799.69108198            1.00000000        71920.58593750       185774.18750000       241634.39062500        33062.58593750       341582.96875000         1483.00000000          140.00000000          123.00000000           67.00000000          151.00000000          186.00000000          189.00000000          152.00000000          149.00000000          126.00000000          147.00000000           91.00000000          148.00000000 
       11810.03057682            1.00000000        71455.58593750       184044.18750000       240151.39062500        33016.59375000       340385.00000000         1483.00000000          140.00000000          123.00000000           67.00000000          151.00000000          186.00000000          189.00000000          152.00000000          149.00000000          126.00000000          147.00000000           91.00000000          148.00000000 
       11819.90205655            1.00000000        71579.58593750       184879.18750000       242024.39062500        33296.58593750       343676.96875000         1483.00000000          140.00000000          123.00000000           67.00000000          151.00000000          186.00000000          189.00000000          152.00000000          149.00000000          126.00000000          147.00000000           91.00000000          148.00000000 
       11829.79029044            1.00000000        71637.58593750       184811.18750000       242692.39062500        33504.58593750       345381.96875000         1483.00000000          140.00000000          123.00000000           67.00000000          151.00000000          186.00000000          189.00000000          152.00000000          149.00000000          126.00000000          147.00000000           91.00000000          148.00000000 
       11840.06136726            1.00000000        71410.58593750       184498.18750000       242977.39062500        33828.59375000       346651.00000000         1483.00000000          140.00000000          123.00000000           67.00000000          151.00000000          186.00000000          189.00000000          152.00000000          149.00000000          126.00000000          147.00000000           91.00000000          148.00000000 
       11849.92274655            1.00000000        71330.58593750       184287.18750000       243421.39062500        34124.58593750       347762.96875000         1483.00000000          140.00000000          123.00000000           67.00000000          151.00000000          186.00000000          189.00000000          152.00000000          149.00000000          126.00000000          147.00000000           91.00000000          148.00000000 
       11859.61715648            1.00000000        71046.58593750       183290.18750000       242700.39062500        34536.59375000       347260.00000000         1483.00000000          140.00000000          123.00000000           67.00000000          151.00000000          186.00000000          189.00000000          152.00000000          149.00000000          126.00000000          147.00000000           91.00000000          148.00000000 
       11869.87953813            1.00000000        70962.58593750       183525.18750000       243341.39062500        35332.58593750       348493.96875000         1483.00000000          140.00000000          123.00000000           67.00000000          151.00000000          186.00000000          189.00000000          152.00000000          149.00000000          126.00000000          147.00000000           91.00000000          148.00000000 
       11879.63782220            1.00000000        70880.58593750       183243.18750000       242799.39062500        36368.58593750       347806.96875000         1483.00000000          140.00000000          123.00000000           67.00000000          151.00000000          186.00000000          189.00000000          152.00000000          149.00000000          126.00000000          147.00000000           91.00000000          148.00000000 
       11889.84309519            1.00000000        70621.58593750       182509.18750000       241245.39062500        37962.59375000       344786.00000000         1483.00000000          140.00000000          123.00000000           67.00000000          151.00000000          186.00000000          189.00000000          152.00000000          149.00000000          126.00000000          147.00000000           91.00000000          148.00000000 
       11890.30459670            1.00000000        70692.58593750       182647.18750000       241457.39062500        38063.58593750       345036.96875000         1483.00000000          140.00000000          123.00000000           67.00000000          151.00000000          186.00000000          189.00000000          152.00000000          149.00000000          126.00000000          147.00000000           91.00000000          148.00000000 
       11890.64305424            1.00000000        70674.58593750       182560.18750000       241261.39062500        38185.58593750       344805.96875000         1483.00000000          140.00000000          123.00000000           67.00000000          151.00000000          186.00000000          189.00000000          152.00000000          149.00000000          126.00000000          147.00000000           91.00000000          148.00000000 
       11891.04307470            1.00000000        70671.58593750       182628.18750000       241198.39062500        38294.58593750       344672.96875000         1483.00000000          140.00000000          123.00000000           67.00000000          151.00000000          186.00000000          189.00000000          152.00000000          149.00000000          126.00000000          147.00000000           91.00000000          148.00000000 
       11891.56621958            1.00000000        70687.58593750       182612.18750000       241112.39062500        38440.59375000       344443.00000000         1483.00000000          140.00000000          123.00000000           67.00000000          151.00000000          186.00000000          189.00000000          152.00000000          149.00000000          126.00000000          147.00000000           91.00000000          148.00000000 
       11892.15096616            1.00000000        70701.58593750       182802.18750000       241297.39062500        38612.59375000       344556.00000000         1483.00000000          140.00000000          123.00000000           67.00000000          151.00000000          186.00000000          189.00000000          152.00000000          149.00000000          126.00000000          147.00000000           91.00000000          148.00000000 
       11892.76655189            1.00000000        70696.58593750       182849.18750000       241287.39062500        38799.58593750       344307.96875000         1483.00000000          140.00000000          123.00000000           67.00000000          151.00000000          186.00000000          189.00000000          152.00000000          149.00000000          126.00000000          147.00000000           91.00000000          148.00000000 
       11893.32063431            1.00000000        70713.58593750       182789.18750000       241097.39062500        38928.58593750       344010.96875000         1483.00000000          140.00000000          123.00000000           67.00000000          151.00000000          186.00000000          189.00000000          152.00000000          149.00000000          126.00000000          147.00000000           91.00000000          148.00000000 
       11894.02870473            1.00000000        71025.58593750       183632.18750000       242078.39062500        39307.59375000       345384.00000000         1483.00000000          140.00000000          123.00000000           67.00000000          151.00000000          186.00000000          189.00000000          152.00000000          149.00000000          126.00000000          147.00000000           91.00000000          148.00000000 
       11894.52132589            1.00000000        71019.58593750       183794.18750000       242220.39062500        39489.59375000       345369.00000000         1483.00000000          140.00000000          123.00000000           67.00000000          151.00000000          186.00000000          189.00000000          152.00000000          149.00000000          126.00000000          147.00000000           91.00000000          148.00000000 
       11895.04478121            1.00000000        70994.58593750       183531.18750000       241744.39062500        39589.58593750       344628.96875000         1483.00000000          140.00000000          123.00000000           67.00000000          151.00000000          186.00000000          189.00000000          152.00000000          149.00000000          126.00000000          147.00000000           91.00000000          148.00000000 
       11895.44510211            1.00000000        70972.58593750       183261.18750000       241305.39062500        39528.58593750       343861.96875000         1483.00000000          140.00000000          123.00000000           67.00000000          151.00000000          186.00000000          189.00000000          152.00000000          149.00000000          126.00000000          147.00000000           91.00000000          148.00000000 
       11895.84545034            1.00000000        70995.58593750       183065.18750000       240919.39062500        39608.59375000       343234.00000000         1483.00000000          140.00000000          123.00000000           67.00000000          151.00000000          186.00000000          189.00000000          152.00000000          149.00000000          126.00000000          147.00000000           91.00000000          148.00000000 
       11896.21502681            1.00000000        71004.58593750       183100.18750000       240880.39062500        39776.58593750       343099.96875000         1483.00000000          140.00000000          123.00000000           67.00000000          151.00000000          186.00000000          189.00000000          152.00000000          149.00000000          126.00000000          147.00000000           91.00000000          148.00000000 
       11896.58462657            1.00000000        70967.58593750       183215.18750000       240980.39062500        40007.58593750       343107.96875000         1483.00000000          140.00000000          123.00000000           67.00000000          151.00000000          186.00000000          189.00000000          152.00000000          149.00000000          126.00000000          147.00000000           91.00000000          148.00000000 
       11897.01585572            1.00000000        71011.58593750       183517.18750000       241147.39062500        40341.59375000       343230.00000000         1483.00000000          140.00000000          123.00000000           67.00000000          151.00000000          186.00000000          189.00000000          152.00000000          149.00000000          126.00000000          147.00000000           91.00000000          148.00000000 
       11897.66275891            1.00000000        71022.59375000       183689.20312500       241204.39062500        40778.59765625       343122.00000000         1483.00000000          140.00000000          123.00000000           67.00000000          151.00000000          186.00000000          189.00000000          152.00000000          149.00000000          126.00000000          147.00000000           91.00000000          148.00000000 
       11898.27892353            1.00000000        71014.58593750       183761.18750000       241131.39062500        41033.58593750       342808.96875000         1483.00000000          140.00000000          123.00000000           67.00000000          151.00000000          186.00000000          189.00000000          152.00000000          149.00000000          126.00000000          147.00000000           91.00000000          148.00000000 
       11898.86433987            1.00000000        70971.58593750       183718.18750000       240915.39062500        41335.58593750       342194.96875000         1483.00000000          140.00000000          123.00000000           67.00000000          151.00000000          186.00000000          189.00000000          152.00000000          149.00000000          126.00000000          147.00000000           91.00000000          148.00000000 
       11899.38818296            1.00000000        71006.58593750       183675.18750000       240682.39062500        41620.59375000       341690.00000000         1483.00000000          140.00000000          123.00000000           67.00000000          151.00000000          186.00000000          189.00000000          152.00000000          149.00000000          126.00000000          147.00000000           91.00000000          148.00000000 
       11900.00452885            1.00000000        70971.58593750       183554.18750000       240222.39062500        41788.58593750       340930.96875000         1483.00000000          140.00000000          123.00000000           67.00000000          151.00000000          186.00000000          189.00000000          152.00000000          149.00000000          126.00000000          147.00000000           91.00000000          148.00000000 
       11900.52847376            1.00000000        70926.58593750       183474.18750000       239912.39062500        42126.59375000       340167.00000000         1483.00000000          140.00000000          123.00000000           67.00000000          151.00000000          186.00000000          189.00000000          152.00000000          149.00000000          126.00000000          147.00000000           91.00000000          148.00000000 
       11901.14493946            1.00000000        70957.58593750       183538.18750000       239734.39062500        42456.58593750       339610.96875000         1483.00000000          140.00000000          123.00000000           67.00000000          151.00000000          186.00000000          189.00000000          152.00000000          149.00000000          126.00000000          147.00000000           91.00000000          148.00000000 
       11901.63815866            1.00000000        70953.58593750       183573.18750000       239554.39062500        42718.58593750       339117.96875000         1483.00000000          140.00000000          123.00000000           67.00000000          151.00000000          186.00000000          189.00000000          152.00000000          149.00000000          126.00000000          147.00000000           91.00000000          148.00000000 
       11902.13141932            1.00000000        70921.58593750       183446.18750000       239242.39062500        42961.58593750       338324.96875000         1483.00000000          140.00000000          123.00000000           67.00000000          151.00000000          186.00000000          189.00000000          152.00000000          149.00000000          126.00000000          147.00000000           91.00000000          148.00000000 
       11902.56305641            1.00000000        70899.58593750       183227.18750000       238675.39062500        43220.59375000       337283.00000000         1483.00000000          140.00000000          123.00000000           67.00000000          151.00000000          186.00000000          189.00000000          152.00000000          149.00000000          126.00000000          147.00000000           91.00000000          148.00000000 
       11902.87138806            1.00000000        70780.58593750       182906.18750000       238122.39062500        43389.59375000       336167.00000000         1483.00000000          140.00000000          123.00000000           67.00000000          151.00000000          186.00000000          189.00000000          152.00000000          149.00000000          126.00000000          147.00000000           91.00000000          148.00000000 
       11903.24140743            1.00000000        70757.58593750       182489.18750000       237267.39062500        43674.58593750       334670.96875000         1483.00000000          140.00000000          123.00000000           67.00000000          151.00000000          186.00000000          189.00000000          152.00000000          149.00000000          126.00000000          147.00000000           91.00000000          148.00000000 
       11903.67312617            1.00000000        70710.58593750       181889.18750000       236209.39062500        43825.58593750       332937.96875000         1483.00000000          140.00000000          123.00000000           67.00000000          151.00000000          186.00000000          189.00000000          152.00000000          149.00000000          126.00000000          147.00000000           91.00000000          148.00000000 
       11904.22823981            1.00000000        70639.58593750       181372.18750000       235192.39062500        44292.59375000       331103.00000000         1483.00000000          140.00000000          123.00000000           67.00000000          151.00000000          186.00000000          189.00000000          152.00000000          149.00000000          126.00000000          147.00000000           91.00000000          148.00000000 
       11904.78340595            1.00000000        70554.58593750       181648.18750000       235065.39062500        44869.58593750       330422.96875000         1483.00000000          140.00000000          123.00000000           67.00000000          151.00000000          186.00000000          189.00000000          152.00000000          149.00000000          126.00000000          147.00000000           91.00000000          148.00000000 
       11905.33862462            1.00000000        70573.58593750       182330.18750000       235549.39062500        45485.58593750       330689.96875000         1483.00000000          140.00000000          123.00000000           67.00000000          151.00000000          186.00000000          189.00000000          152.00000000          149.00000000          126.00000000          147.00000000           91.00000000          148.00000000 
       11905.92474574            1.00000000        70457.58593750       182737.18750000       235666.39062500        46106.58593750       330146.96875000         1483.00000000          140.00000000          123.00000000           67.00000000          151.00000000          186.00000000          189.00000000          152.00000000          149.00000000          126.00000000          147.00000000           91.00000000          148.00000000 
       11906.44921953            1.00000000        70468.58593750       183069.18750000       235523.39062500        46708.59375000       329516.00000000         1483.00000000          140.00000000          123.00000000           67.00000000          151.00000000          186.00000000          189.00000000          152.00000000          149.00000000          126.00000000          147.00000000           91.00000000          148.00000000 
       11906.97374017            1.00000000        70472.58593750       182805.18750000       234658.39062500        47274.58593750       327571.96875000         1483.00000000          140.00000000          123.00000000           67.00000000          151.00000000          186.00000000          189.00000000          152.00000000          149.00000000          126.00000000          147.00000000           91.00000000          148.00000000 
       11907.43659143            1.00000000        70590.58593750       182970.18750000       234322.39062500        47995.59375000       326478.00000000         1483.00000000          140.00000000          123.00000000           67.00000000          151.00000000          186.00000000          189.00000000          152.00000000          149.00000000          126.00000000          147.00000000           91.00000000          148.00000000 
       11907.83775871            1.00000000        70697.58593750       182917.18750000       233731.39062500        48481.59375000       325091.00000000         1483.00000000          140.00000000          123.00000000           67.00000000          151.00000000          186.00000000          189.00000000          152.00000000          149.00000000          126.00000000          147.00000000           91.00000000          148.00000000 
       11908.23895341            1.00000000        70662.58593750       182924.18750000       233177.39062500        49119.58593750       323780.96875000         1483.00000000          140.00000000          123.00000000           67.00000000          151.00000000          186.00000000          189.00000000          152.00000000          149.00000000          126.00000000          147.00000000           91.00000000          148.00000000 
       11908.57844726            1.00000000        70758.58593750       182988.18750000       232805.39062500        49636.58593750       322629.96875000         1483.00000000          140.00000000          123.00000000           67.00000000          151.00000000          186.00000000          189.00000000          152.00000000          149.00000000          126.00000000          147.00000000           91.00000000          148.00000000 
       11908.94882657            1.00000000        70754.58593750       182900.18750000       232174.39062500        50216.58593750       321116.96875000         1483.00000000          140.00000000          123.00000000           67.00000000          151.00000000          186.00000000          189.00000000          152.00000000          149.00000000          126.00000000          147.00000000           91.00000000          148.00000000 
       11909.41183358            1.00000000        70792.58593750       182839.18750000       231473.39062500        50903.59375000       319341.00000000         1483.00000000          140.00000000          123.00000000           67.00000000          151.00000000          186.00000000          189.00000000          152.00000000          149.00000000          126.00000000          147.00000000           91.00000000          148.00000000 
       11909.87487710            1.00000000        70736.59375000       182729.20312500       230525.39062500        51704.59765625       317190.00000000         1483.00000000          140.00000000          123.00000000           67.00000000          151.00000000          186.00000000          189.00000000          152.00000000          149.00000000          126.00000000          147.00000000           91.00000000          148.00000000 
       11910.46145131            1.00000000        70646.58593750       182178.18750000       228808.39062500        52667.58593750       313662.96875000         1483.00000000          140.00000000          123.00000000           67.00000000          151.00000000          186.00000000          189.00000000          152.00000000          149.00000000          126.00000000          147.00000000           91.00000000          148.00000000 
       11911.01720725            1.00000000        70612.58593750       181597.18750000       226980.39062500        53730.58593750       309741.96875000         1483.00000000          140.00000000          123.00000000           67.00000000          151.00000000          186.00000000          189.00000000          152.00000000          149.00000000          126.00000000          147.00000000           91.00000000          148.00000000 
       11911.54213617            1.00000000        70528.58593750       180944.18750000       224939.39062500        54808.59375000       305459.00000000         1483.00000000          140.00000000          123.00000000           67.00000000          151.00000000          186.00000000          189.00000000          152.00000000          149.00000000          126.00000000          147.00000000           91.00000000          148.00000000 
       11912.15975967            1.00000000        70495.58593750       181164.18750000       223527.39062500        56709.59375000       301501.00000000         1483.00000000          140.00000000          123.00000000           67.00000000          151.00000000          186.00000000          189.00000000          152.00000000          149.00000000          126.00000000          147.00000000           91.00000000          148.00000000 
       11912.74656217            1.00000000        70488.58593750       181758.18750000       222766.39062500        58510.59375000       298568.00000000         1483.00000000          140.00000000          123.00000000           67.00000000          151.00000000          186.00000000          189.00000000          152.00000000          149.00000000          126.00000000          147.00000000           91.00000000          148.00000000 
       11913.33342330            1.00000000        70392.58593750       182513.18750000       222018.39062500        60508.58593750       295320.96875000         1483.00000000          140.00000000          123.00000000           67.00000000          151.00000000          186.00000000          189.00000000          152.00000000          149.00000000          126.00000000          147.00000000           91.00000000          148.00000000 
       11913.82766763            1.00000000        70424.58593750       182980.18750000       220757.39062500        62494.58593750       291608.96875000         1483.00000000          140.00000000          123.00000000           67.00000000          151.00000000          186.00000000          189.00000000          152.00000000          149.00000000          126.00000000          147.00000000           91.00000000          148.00000000 
       11914.35284781            1.00000000        70480.58593750       183074.18750000       219051.39062500        64561.58593750       286822.96875000         1483.00000000          140.00000000          123.00000000           67.00000000          151.00000000          186.00000000          189.00000000          152.00000000          149.00000000          126.00000000          147.00000000           91.00000000          148.00000000 
       11914.75448786            1.00000000        70540.58593750       183173.18750000       217340.39062500        66419.59375000       282200.00000000         1483.00000000          140.00000000          123.00000000           67.00000000          151.00000000          186.00000000          189.00000000          152.00000000          149.00000000          126.00000000          147.00000000           91.00000000          148.00000000 
       11915.15615538            1.00000000        70602.58593750       183166.18750000       215318.39062500        68672.59375000       276769.00000000         1483.00000000          140.00000000          123.00000000           67.00000000          151.00000000          186.00000000          189.00000000          152.00000000          149.00000000          126.00000000          147.00000000           91.00000000          148.00000000 
       11915.52694977            1.00000000        70654.58593750       182919.18750000       212650.39062500        71099.58593750       270339.96875000         1483.00000000          140.00000000          123.00000000           67.00000000          151.00000000          186.00000000          189.00000000          152.00000000          149.00000000          126.00000000          147.00000000           91.00000000          148.00000000 
       11915.95957281            1.00000000        70719.58593750       183086.18750000       209501.39062500        74689.58593750       261777.98437500         1483.00000000          140.00000000          123.00000000           67.00000000          151.00000000          186.00000000          189.00000000          152.00000000          149.00000000          126.00000000          147.00000000           91.00000000          148.00000000 
       11916.51584926            1.00000000        70796.58593750       183076.18750000       205159.39062500        79305.58593750       250549.98437500         1483.00000000          140.00000000          123.00000000           67.00000000          151.00000000          186.00000000          189.00000000          152.00000000          149.00000000          126.00000000          147.00000000           91.00000000          148.00000000 
       11917.07217837            1.00000000        70765.58593750       183172.18750000       200402.39062500        84792.58593750       238054.98437500         1483.00000000          140.00000000          123.00000000           67.00000000          151.00000000          186.00000000          189.00000000          152.00000000          149.00000000          126.00000000          147.00000000           91.00000000          148.00000000 
       11917.75220773            1.00000000        70742.58593750       182917.18750000       193397.39062500        91849.59375000       220879.98437500         1483.00000000          140.00000000          123.00000000           67.00000000          151.00000000          186.00000000          189.00000000          152.00000000          149.00000000          126.00000000          147.00000000           91.00000000          148.00000000 
       11918.40140008            1.00000000        70642.59375000       182746.20312500       185720.39062500       100312.60156250       202812.00000000         1483.00000000          140.00000000          123.00000000           67.00000000          151.00000000          186.00000000          189.00000000          152.00000000          149.00000000          126.00000000          147.00000000           91.00000000          148.00000000 
       11918.92698929            1.00000000        70703.58593750       182826.18750000       178040.39062500       109159.59375000       185749.98437500         1483.00000000          140.00000000          123.00000000           67.00000000          151.00000000          186.00000000          189.00000000          152.00000000          149.00000000          126.00000000          147.00000000           91.00000000          148.00000000 
       11919.45262551            1.00000000        70632.58593750       182677.18750000       169033.39062500       119437.58593750       167925.98437500         1483.00000000          140.00000000          123.00000000           67.00000000          151.00000000          186.00000000          189.00000000          152.00000000          149.00000000          126.00000000          147.00000000           91.00000000          148.00000000 
       11919.88553770            1.00000000        70688.58593750       182772.18750000       160440.39062500       130099.58593750       152435.98437500         1483.00000000          140.00000000          123.00000000           67.00000000          151.00000000          186.00000000          189.00000000          152.00000000          149.00000000          126.00000000          147.00000000           91.00000000          148.00000000 
       11920.28755615            1.00000000        70671.58593750       182800.18750000       151361.39062500       141266.59375000       137843.98437500         1483.00000000          140.00000000          123.00000000           67.00000000          151.00000000          186.00000000          189.00000000          152.00000000          149.00000000          126.00000000          147.00000000           91.00000000          148.00000000 
       11920.62774709            1.00000000        70716.58593750       182934.18750000       143483.39062500       151631.59375000       126445.99218750         1483.00000000          140.00000000          123.00000000           67.00000000          151.00000000          186.00000000          189.00000000          152.00000000          149.00000000          126.00000000          147.00000000           91.00000000          148.00000000 
       11920.99888694            1.00000000        70711.58593750       182921.18750000       134757.39062500       163182.59375000       115099.99218750         1483.00000000          140.00000000          123.00000000           67.00000000          151.00000000          186.00000000          189.00000000          152.00000000          149.00000000          126.00000000          147.00000000           91.00000000          148.00000000 
       11921.40098155            1.00000000        70784.58593750       182845.18750000       125846.39062500       175040.59375000       104411.99218750         1483.00000000          140.00000000          123.00000000           67.00000000          151.00000000          186.00000000          189.00000000          152.00000000          149.00000000          126.00000000          147.00000000           91.00000000          148.00000000 
       11921.86497106            1.00000000        70729.58593750       182754.18750000       116513.38281250       188112.59375000        94133.98437500         1483.00000000          140.00000000          123.00000000           67.00000000          151.00000000          186.00000000          189.00000000          152.00000000          149.00000000          126.00000000          147.00000000           91.00000000          148.00000000 
       11922.51461792            1.00000000        70700.58593750       182913.18750000       105748.38281250       204296.59375000        83178.98437500         1483.00000000          140.00000000          123.00000000           67.00000000          151.00000000          186.00000000          189.00000000          152.00000000          149.00000000          126.00000000          147.00000000           91.00000000          148.00000000 
       11923.16433658            1.00000000        70622.58593750       182670.18750000        96467.38281250       217992.59375000        74320.98437500         1483.00000000          140.00000000          123.00000000           67.00000000          151.00000000          186.00000000          189.00000000          152.00000000          149.00000000          126.00000000          147.00000000           91.00000000          148.00000000 
       11923.81412705            1.00000000        70591.58593750       182358.18750000        89974.38281250       227770.59375000        68420.98437500         1483.00000000          140.00000000          123.00000000           67.00000000          151.00000000          186.00000000          189.00000000          152.00000000          149.00000000          126.00000000          147.00000000           91.00000000          148.00000000 
       11924.40209462            1.00000000        70555.58593750       182167.18750000        86828.38281250       232146.59375000        65654.98437500         1483.00000000          140.00000000          123.00000000           67.00000000          151.00000000          186.00000000          189.00000000          152.00000000          149.00000000          126.00000000          147.00000000           91.00000000          148.00000000 
       11924.92822071            1.00000000        70569.58593750       182386.18750000        85957.38281250       234127.59375000        64884.98437500         1483.00000000          140.00000000          123.00000000           67.00000000          151.00000000          186.00000000          189.00000000          152.00000000          149.00000000          126.00000000          147.00000000           91.00000000          148.00000000 
       11925.51629971            1.00000000        70531.59375000       182406.20312500        86362.39843750       233312.59375000        65211.99609375         1483.00000000          140.00000000          123.00000000           67.00000000          151.00000000          186.00000000          189.00000000          152.00000000          149.00000000          126.00000000          147.00000000           91.00000000          148.00000000 
       11926.04252551            1.00000000        70550.58593750       182364.18750000        87694.39062500       230698.59375000        66207.99218750         1483.00000000          140.00000000          123.00000000           67.00000000          151.00000000          186.00000000          189.00000000          152.00000000          149.00000000          126.00000000          147.00000000           91.00000000          148.00000000 
       11926.59975712            1.00000000        70543.58593750       182298.18750000        89865.38281250       226544.59375000        67860.98437500         1483.00000000          140.00000000          123.00000000           67.00000000          151.00000000          186.00000000          189.00000000          152.00000000          149.00000000          126.00000000          147.00000000           91.00000000          148.00000000 
       11927.00223501            1.00000000        70561.58593750       182137.18750000        92029.38281250       222664.59375000        69430.98437500         1483.00000000          140.00000000          123.00000000           67.00000000          151.00000000          186.00000000          189.00000000          152.00000000          149.00000000          126.00000000          147.00000000           91.00000000          148.00000000 
       11927.37377751            1.00000000        70521.57812500       181876.17187500        94192.38281250       218567.57812500        70917.97656250         1483.00000000          140.00000000          123.00000000           67.00000000          151.00000000          186.00000000          189.00000000          152.00000000          149.00000000          126.00000000          147.00000000           91.00000000          148.00000000 
       11927.71437876            1.00000000        70549.58593750       181800.18750000        96581.38281250       214182.59375000        72560.98437500         1483.00000000          140.00000000          123.00000000           67.00000000          151.00000000          186.00000000          189.00000000          152.00000000          149.00000000          126.00000000          147.00000000           91.00000000          148.00000000 
       11928.08596626            1.00000000        70578.58593750       181936.18750000        99365.39062500       209953.59375000        74347.99218750         1483.00000000          140.00000000          123.00000000           67.00000000          151.00000000          186.00000000          189.00000000          152.00000000          149.00000000          126.00000000          147.00000000           91.00000000          148.00000000 
       11928.51951469            1.00000000        70501.58593750       182066.18750000       102574.39062500       205309.59375000        76340.99218750         1483.00000000          140.00000000          123.00000000           67.00000000          151.00000000          186.00000000          189.00000000          152.00000000          149.00000000          126.00000000          147.00000000           91.00000000          148.00000000 
       11929.10795297            1.00000000        70452.58593750       182240.18750000       105957.38281250       200539.59375000        78116.98437500         1483.00000000          140.00000000          123.00000000           67.00000000          151.00000000          186.00000000          189.00000000          152.00000000          149.00000000          126.00000000          147.00000000           91.00000000          148.00000000 
       11929.63450028            1.00000000        70392.59375000       182118.20312500       108460.39843750       196377.59375000        79334.00000000         1483.00000000          140.00000000          123.00000000           67.00000000          151.00000000          186.00000000          189.00000000          152.00000000          149.00000000          126.00000000          147.00000000           91.00000000          148.00000000 
       11930.28500616            1.00000000        70396.59375000       182203.20312500       110931.39843750       192839.59375000        80354.00000000         1483.00000000          140.00000000          123.00000000           67.00000000          151.00000000          186.00000000          189.00000000          152.00000000          149.00000000          126.00000000          147.00000000           91.00000000          148.00000000 
       11930.90460247            1.00000000        70452.58593750       182228.18750000       113111.38281250       189977.59375000        81099.98437500         1483.00000000          140.00000000          123.00000000           67.00000000          151.00000000          186.00000000          189.00000000          152.00000000          149.00000000          126.00000000          147.00000000           91.00000000          148.00000000 
       11931.43131064            1.00000000        70499.58593750       182132.18750000       114508.38281250       187774.59375000        81481.98437500         1483.00000000          140.00000000          123.00000000           67.00000000          151.00000000          186.00000000          189.00000000          152.00000000          149.00000000          126.00000000          147.00000000           91.00000000          148.00000000 
       11931.89609232            1.00000000        70518.58593750       182239.18750000       115563.38281250       186593.59375000        81691.98437500         1483.00000000          140.00000000          123.00000000           67.00000000          151.00000000          186.00000000          189.00000000          152.00000000          149.00000000          126.00000000          147.00000000           91.00000000          148.00000000 
       11932.32992168            1.00000000        70467.58593750       181991.18750000       116126.38281250       185102.59375000        81566.98437500         1483.00000000          140.00000000          123.00000000           67.00000000          151.00000000          186.00000000          189.00000000          152.00000000          149.00000000          126.00000000          147.00000000           91.00000000          148.00000000 
       11932.70180088            1.00000000        70453.57812500       182018.17187500       116515.38281250       184746.57812500        81523.97656250         1483.00000000          140.00000000          123.00000000           67.00000000          151.00000000          186.00000000          189.00000000          152.00000000          149.00000000          126.00000000          147.00000000           91.00000000          148.00000000 
       11933.04271080            1.00000000        70459.58593750       182000.18750000       116624.38281250       184642.59375000        81296.98437500         1483.00000000          140.00000000          123.00000000           67.00000000          151.00000000          186.00000000          189.00000000          152.00000000          149.00000000          126.00000000          147.00000000           91.00000000          148.00000000 
       11933.44562981            1.00000000        70463.58593750       181716.18750000       116347.39062500       184489.59375000        80839.99218750         1483.00000000          140.00000000          123.00000000           67.00000000          151.00000000          186.00000000          189.00000000          152.00000000          149.00000000          126.00000000          147.00000000           91.00000000          148.00000000 
       11933.81757955            1.00000000        70467.58593750       182071.18750000       116369.39062500       185208.59375000        80725.99218750         1483.00000000          140.00000000          123.00000000           67.00000000          151.00000000          186.00000000          189.00000000          152.00000000          149.00000000          126.00000000          147.00000000           91.00000000          148.00000000 
       11934.25155062            1.00000000        70496.58593750       182037.18750000       115870.38281250       185969.59375000        80150.98437500         1483.00000000          140.00000000          123.00000000           67.00000000          151.00000000          186.00000000          189.00000000          152.00000000          149.00000000          126.00000000          147.00000000           91.00000000          148.00000000 
       11934.87156482            1.00000000        70527.58593750       182150.18750000       114938.39062500       187716.59375000        79404.99218750         1483.00000000          140.00000000          123.00000000           67.00000000          151.00000000          186.00000000          189.00000000          152.00000000          149.00000000          126.00000000          147.00000000           91.00000000          148.00000000 
       11935.39862827            1.00000000        70461.58593750       182142.18750000       113739.39062500       189429.59375000        78446.99218750         1483.00000000          140.00000000          123.00000000           67.00000000          151.00000000          186.00000000          189.00000000          152.00000000          149.00000000          126.00000000          147.00000000           91.00000000          148.00000000 
       11935.95674690            1.00000000        70489.58593750       182200.18750000       112215.39062500       192093.59375000        77264.99218750         1483.00000000          140.00000000          123.00000000           67.00000000          151.00000000          186.00000000          189.00000000          152.00000000          149.00000000          126.00000000          147.00000000           91.00000000          148.00000000 
       11936.48390755            1.00000000        70494.58593750       182271.18750000       110556.39062500       194686.59375000        76037.99218750         1483.00000000          140.00000000          123.00000000           67.00000000          151.00000000          186.00000000          189.00000000          152.00000000          149.00000000          126.00000000          147.00000000           91.00000000          148.00000000 
       11937.07314298            1.00000000        70421.58593750       182171.18750000       108566.38281250       197467.59375000        74462.98437500         1483.00000000          140.00000000          123.00000000           67.00000000          151.00000000          186.00000000          189.00000000          152.00000000          149.00000000          126.00000000          147.00000000           91.00000000          148.00000000 
       11937.60040364            1.00000000        70237.58593750       181449.18750000       106335.38281250       199417.59375000        72728.98437500         1483.00000000          140.00000000          123.00000000           67.00000000          151.00000000          186.00000000          189.00000000          152.00000000          149.00000000          126.00000000          147.00000000           91.00000000          148.00000000 
       11938.25179085            1.00000000        70314.58593750       181577.18750000       104326.38281250       202957.59375000        71122.98437500         1483.00000000          140.00000000          123.00000000           67.00000000          151.00000000          186.00000000          189.00000000          152.00000000          149.00000000          126.00000000          147.00000000           91.00000000          148.00000000 
       11938.81018012            1.00000000        70799.58593750       181564.18750000       102568.38281250       205548.59375000        69705.98437500         1483.00000000          140.00000000          123.00000000           67.00000000          151.00000000          186.00000000          189.00000000          152.00000000          149.00000000          126.00000000          147.00000000           91.00000000          148.00000000 
       11939.27554498            1.00000000        70342.58593750       181666.18750000       101204.38281250       207840.59375000        68631.98437500         1483.00000000          140.00000000          123.00000000           67.00000000          151.00000000          186.00000000          189.00000000          152.00000000          149.00000000          126.00000000          147.00000000           91.00000000          148.00000000 
       11939.64786335            1.00000000        70346.58593750       181735.18750000       100006.39062500       210220.59375000        67641.99218750         1483.00000000          140.00000000          123.00000000           67.00000000          151.00000000          186.00000000          189.00000000          152.00000000          149.00000000          126.00000000          147.00000000           91.00000000          148.00000000 
       11940.02020528            1.00000000        70336.58593750       181739.18750000        98725.38281250       212184.59375000        66611.98437500         1483.00000000          140.00000000          123.00000000           67.00000000          151.00000000          186.00000000          189.00000000          152.00000000          149.00000000          126.00000000          147.00000000           91.00000000          148.00000000 
       11940.45463396            1.00000000        70332.58593750       181776.18750000        97314.38281250       214620.59375000        65479.98437500         1483.00000000          140.00000000          123.00000000           67.00000000          151.00000000          186.00000000          189.00000000          152.00000000          149.00000000          126.00000000          147.00000000           91.00000000          148.00000000 
       11940.95116314            1.00000000        70280.58593750       181550.18750000        95605.39062500       216854.59375000        64080.99218750         1483.00000000          140.00000000          123.00000000           67.00000000          151.00000000          186.00000000          189.00000000          152.00000000          149.00000000          126.00000000          147.00000000           91.00000000          148.00000000 
       11941.54084593            1.00000000        70264.58593750       181601.18750000        94123.39062500       219338.59375000        62610.99218750         1483.00000000          140.00000000          123.00000000           67.00000000          151.00000000          186.00000000          189.00000000          152.00000000          149.00000000          126.00000000          147.00000000           91.00000000          148.00000000 
       11942.13058779            1.00000000        70284.58593750       181588.18750000        92846.39062500       221438.59375000        61212.99218750         1483.00000000          140.00000000          123.00000000           67.00000000          151.00000000          186.00000000          189.00000000          152.00000000          149.00000000          126.00000000          147.00000000           91.00000000          148.00000000 
       11942.72038872            1.00000000        70282.58593750       181695.18750000        91945.39062500       223086.59375000        59893.99218750         1483.00000000          140.00000000          123.00000000           67.00000000          151.00000000          186.00000000          189.00000000          152.00000000          149.00000000          126.00000000          147.00000000           91.00000000          148.00000000 
       11943.34129563            1.00000000        70263.58593750       181480.18750000        91138.38281250       224111.59375000        58392.98437500         1483.00000000          140.00000000          123.00000000           67.00000000          151.00000000          186.00000000          189.00000000          152.00000000          149.00000000          126.00000000          147.00000000           91.00000000          148.00000000 
       11943.83806831            1.00000000        70287.59375000       181564.20312500        90694.39843750       225063.59375000        57323.99609375         1483.00000000          140.00000000          123.00000000           67.00000000          151.00000000          186.00000000          189.00000000          152.00000000          149.00000000          126.00000000          147.00000000           91.00000000          148.00000000 
       11944.36593519            1.00000000        70286.58593750       181601.18750000        90479.39062500       225415.59375000        56264.99218750         1483.00000000          140.00000000          123.00000000           67.00000000          151.00000000          186.00000000          189.00000000          152.00000000          149.00000000          126.00000000          147.00000000           91.00000000          148.00000000 
       11944.80068463            1.00000000        70417.58593750       181898.18750000        90491.39062500       225962.59375000        55561.99218750         1483.00000000          140.00000000          123.00000000           67.00000000          151.00000000          186.00000000          189.00000000          152.00000000          149.00000000          126.00000000          147.00000000           91.00000000          148.00000000 
       11945.17335254            1.00000000        70609.58593750       182580.18750000        90886.39062500       226872.59375000        55227.99218750         1483.00000000          140.00000000          123.00000000           67.00000000          151.00000000          186.00000000          189.00000000          152.00000000          149.00000000          126.00000000          147.00000000           91.00000000          148.00000000 
       11945.51498552            1.00000000        70669.58593750       182624.18750000        91015.38281250       226486.59375000        54896.98437500         1483.00000000          140.00000000          123.00000000           67.00000000          151.00000000          186.00000000          189.00000000          152.00000000          149.00000000          126.00000000          147.00000000           91.00000000          148.00000000 
       11945.85663831            1.00000000        70646.58593750       182607.18750000        91192.39062500       226345.59375000        54713.99218750         1483.00000000          140.00000000          123.00000000           67.00000000          151.00000000          186.00000000          189.00000000          152.00000000          149.00000000          126.00000000          147.00000000           91.00000000          148.00000000 
       11946.29149780            1.00000000        70590.58593750       182448.18750000        91386.38281250       225560.59375000        54596.98437500         1483.00000000          140.00000000          123.00000000           67.00000000          151.00000000          186.00000000          189.00000000          152.00000000          149.00000000          126.00000000          147.00000000           91.00000000          148.00000000 
       11946.85065003            1.00000000        70591.58593750       182325.18750000        91747.38281250       224717.59375000        54726.98437500         1483.00000000          140.00000000          123.00000000           67.00000000          151.00000000          186.00000000          189.00000000          152.00000000          149.00000000          126.00000000          147.00000000           91.00000000          148.00000000 
       11947.53413041            1.00000000        70575.58593750       182214.18750000        92334.38281250       223448.59375000        55270.98437500         1483.00000000          140.00000000          123.00000000           67.00000000          151.00000000          186.00000000          189.00000000          152.00000000          149.00000000          126.00000000          147.00000000           91.00000000          148.00000000 
       11948.15554503            1.00000000        70566.58593750       182181.18750000        92997.38281250       222536.59375000        56097.98437500         1483.00000000          140.00000000          123.00000000           67.00000000          151.00000000          186.00000000          189.00000000          152.00000000          149.00000000          126.00000000          147.00000000           91.00000000          148.00000000 
       11948.68379899            1.00000000        70558.58593750       182295.18750000        93716.38281250       221521.59375000        57060.98437500         1483.00000000          140.00000000          123.00000000           67.00000000          151.00000000          186.00000000          189.00000000          152.00000000          149.00000000          126.00000000          147.00000000           91.00000000          148.00000000 
       11949.30533490            1.00000000        70416.58593750       181954.18750000        94308.38281250       220000.59375000        58094.98437500         1483.00000000          140.00000000          123.00000000           67.00000000          151.00000000          186.00000000          189.00000000          152.00000000          149.00000000          126.00000000          147.00000000           91.00000000          148.00000000 
       11949.86477328            1.00000000        70464.58593750       181924.18750000        94872.38281250       219017.59375000        59036.98437500         1483.00000000          140.00000000          123.00000000           67.00000000          151.00000000          186.00000000          189.00000000          152.00000000          149.00000000          126.00000000          147.00000000           91.00000000          148.00000000 
       11951.23251297            1.00000000        70493.58593750       181738.18750000        96069.38281250       216692.59375000        61070.98437500         1483.00000000          140.00000000          123.00000000           67.00000000          151.00000000          186.00000000          189.00000000          152.00000000          149.00000000          126.00000000          147.00000000           91.00000000          148.00000000 
       11952.47618823            1.00000000        70471.58593750       182297.18750000        96988.38281250       216518.59375000        62190.98437500         1483.00000000          140.00000000          123.00000000           67.00000000          151.00000000          186.00000000          189.00000000          152.00000000          149.00000000          126.00000000          147.00000000           91.00000000          148.00000000 
       11954.00004819            1.00000000        70523.58593750       182291.18750000        96907.38281250       216878.59375000        62431.98437500         1483.00000000          140.00000000          123.00000000           67.00000000          151.00000000          186.00000000          189.00000000          152.00000000          149.00000000          126.00000000          147.00000000           91.00000000          148.00000000 
       11955.83542291            1.00000000        70466.57812500       182117.17187500        95902.38281250       218239.57812500        62172.97656250         1483.00000000          140.00000000          123.00000000           67.00000000          151.00000000          186.00000000          189.00000000          152.00000000          149.00000000          126.00000000          147.00000000           91.00000000          148.00000000 
       11957.36015165            1.00000000        70469.58593750       182150.18750000        94991.39062500       220059.59375000        61961.99218750         1483.00000000          140.00000000          123.00000000           67.00000000          151.00000000          186.00000000          189.00000000          152.00000000          149.00000000          126.00000000          147.00000000           91.00000000          148.00000000 
       11958.69850384            1.00000000        70483.58593750       182356.18750000        94279.38281250       221743.59375000        61648.98437500         1483.00000000          140.00000000          123.00000000           67.00000000          151.00000000          186.00000000          189.00000000          152.00000000          149.00000000          126.00000000          147.00000000           91.00000000          148.00000000 
       11960.50420440            1.00000000        70337.58593750       181784.18750000        93112.38281250       222683.59375000        60434.98437500         1483.00000000          140.00000000          123.00000000           67.00000000          151.00000000          186.00000000          189.00000000          152.00000000          149.00000000          126.00000000          147.00000000           91.00000000          148.00000000 
       11962.46619542            1.00000000        70346.58593750       181671.18750000        92049.38281250       224214.59375000        58638.98437500         1483.00000000          140.00000000          123.00000000           67.00000000          151.00000000          186.00000000          189.00000000          152.00000000          149.00000000          126.00000000          147.00000000           91.00000000          148.00000000 
       11964.33536525            1.00000000        70229.58593750       181451.18750000        90980.38281250       225722.59375000        56940.98437500         1483.00000000          140.00000000          123.00000000           67.00000000          151.00000000          186.00000000          189.00000000          152.00000000          149.00000000          126.00000000          147.00000000           91.00000000          148.00000000 
       11966.11162530            1.00000000        70304.58593750       181628.18750000        90193.39062500       227593.59375000        55280.99218750         1483.00000000          140.00000000          123.00000000           67.00000000          151.00000000          186.00000000          189.00000000          152.00000000          149.00000000          126.00000000          147.00000000           91.00000000          148.00000000 
       11968.35608681            1.00000000        70327.58593750       181717.18750000        89853.38281250       228585.59375000        54245.98437500         1483.00000000          140.00000000          123.00000000           67.00000000          151.00000000          186.00000000          189.00000000          152.00000000          149.00000000          126.00000000          147.00000000           91.00000000          148.00000000 
       11970.07118130            1.00000000        70237.58593750       181477.18750000        89722.39062500       228396.59375000        54039.99218750         1483.00000000          140.00000000          123.00000000           67.00000000          151.00000000          186.00000000          189.00000000          152.00000000          149.00000000          126.00000000          147.00000000           91.00000000          148.00000000 
       11971.78677432            1.00000000        70178.58593750       181340.18750000        89732.39062500       228369.59375000        54370.99218750         1483.00000000          140.00000000          123.00000000           67.00000000          151.00000000          186.00000000          189.00000000          152.00000000          149.00000000          126.00000000          147.00000000           91.00000000          148.00000000 
       11974.22065239            1.00000000        70122.58593750       181148.18750000        89651.38281250       228114.59375000        55136.98437500         1483.00000000          140.00000000          123.00000000           67.00000000          151.00000000          186.00000000          189.00000000          152.00000000          149.00000000          126.00000000          147.00000000           91.00000000          148.00000000 
       11976.37453501            1.00000000        70164.59375000       181288.20312500        89632.39843750       228715.59375000        55684.99609375         1483.00000000          140.00000000          123.00000000           67.00000000          151.00000000          186.00000000          189.00000000          152.00000000          149.00000000          126.00000000          147.00000000           91.00000000          148.00000000 
       11978.06073043            1.00000000        70125.58593750       181121.18750000        89414.39062500       228756.59375000        55946.99218750         1483.00000000          140.00000000          123.00000000           67.00000000          151.00000000          186.00000000          189.00000000          152.00000000          149.00000000          126.00000000          147.00000000           91.00000000          148.00000000 
       11980.43471017            1.00000000        70034.59375000       180732.20312500        89256.39843750       228622.59375000        56306.99609375         1483.00000000          140.00000000          123.00000000           67.00000000          151.00000000          186.00000000          189.00000000          152.00000000          149.00000000          126.00000000          147.00000000           91.00000000          148.00000000 
       11982.43459122            1.00000000        70019.59375000       180754.20312500        89389.39843750       228531.59375000        56672.99609375         1483.00000000          140.00000000          123.00000000           67.00000000          151.00000000          186.00000000          189.00000000          152.00000000          149.00000000          126.00000000          147.00000000           91.00000000          148.00000000 
       11984.18504258            1.00000000        69997.58593750       180741.18750000        89765.38281250       227912.59375000        57180.98437500         1483.00000000          140.00000000          123.00000000           67.00000000          151.00000000          186.00000000          189.00000000          152.00000000          149.00000000          126.00000000          147.00000000           91.00000000          148.00000000 
       11986.62403565            1.00000000        69951.58593750       180633.18750000        90536.39062500       226448.59375000        58227.99218750         1483.00000000          140.00000000          123.00000000           67.00000000          151.00000000          186.00000000          189.00000000          152.00000000          149.00000000          126.00000000          147.00000000           91.00000000          148.00000000 
       11989.12661291            1.00000000        69941.58593750       180659.18750000        91609.38281250       225022.59375000        59451.98437500         1483.00000000          140.00000000          123.00000000           67.00000000          151.00000000          186.00000000          189.00000000          152.00000000          149.00000000          126.00000000          147.00000000           91.00000000          148.00000000 
       11991.19203696            1.00000000        69840.58593750       180323.18750000        92565.38281250       222835.59375000        60439.98437500         1483.00000000          140.00000000          123.00000000           67.00000000          151.00000000          186.00000000          189.00000000          152.00000000          149.00000000          126.00000000          147.00000000           91.00000000          148.00000000 
       11993.72786199            1.00000000        69775.58593750       179815.18750000        93479.38281250       220553.59375000        61077.98437500         1483.00000000          140.00000000          123.00000000           67.00000000          151.00000000          186.00000000          189.00000000          152.00000000          149.00000000          126.00000000          147.00000000           91.00000000          148.00000000 
       11995.73224605            1.00000000        69806.58593750       180495.18750000        94551.38281250       220300.59375000        61616.98437500         1483.00000000          140.00000000          123.00000000           67.00000000          151.00000000          186.00000000          189.00000000          152.00000000          149.00000000          126.00000000          147.00000000           91.00000000          148.00000000 
       11998.45804524            1.00000000        69839.58593750       180246.18750000        95126.38281250       219227.59375000        61632.98437500         1483.00000000          140.00000000          123.00000000           67.00000000          151.00000000          186.00000000          189.00000000          152.00000000          149.00000000          126.00000000          147.00000000           91.00000000          148.00000000 
       12001.18510077            1.00000000        69724.58593750       180115.18750000        95378.38281250       218664.59375000        61224.98437500         1483.00000000          140.00000000          123.00000000           67.00000000          151.00000000          186.00000000          189.00000000          152.00000000          149.00000000          126.00000000          147.00000000           91.00000000          148.00000000 
       12003.19201314            1.00000000        69772.58593750       180215.18750000        95521.38281250       218992.59375000        60784.98437500         1483.00000000          140.00000000          123.00000000           67.00000000          151.00000000          186.00000000          189.00000000          152.00000000          149.00000000          126.00000000          147.00000000           91.00000000          148.00000000 
       12006.07814230            1.00000000        69689.58593750       180062.18750000        95256.38281250       219161.59375000        60129.98437500         1483.00000000          140.00000000          123.00000000           67.00000000          151.00000000          186.00000000          189.00000000          152.00000000          149.00000000          126.00000000          147.00000000           91.00000000          148.00000000 
       12008.14949332            1.00000000        69734.58593750       180385.18750000        95273.38281250       220179.59375000        59918.98437500         1483.00000000          140.00000000          123.00000000           67.00000000          151.00000000          186.00000000          189.00000000          152.00000000          149.00000000          126.00000000          147.00000000           91.00000000          148.00000000 
       12010.72399975            1.00000000        69730.58593750       180362.18750000        94925.38281250       220858.59375000        59832.98437500         1483.00000000          140.00000000          123.00000000           67.00000000          151.00000000          186.00000000          189.00000000          152.00000000          149.00000000          126.00000000          147.00000000           91.00000000          148.00000000 
       12013.58238460            1.00000000        69574.58593750       179890.18750000        94331.38281250       221280.59375000        59754.98437500         1483.00000000          140.00000000          123.00000000           67.00000000          151.00000000          186.00000000          189.00000000          152.00000000          149.00000000          126.00000000          147.00000000           91.00000000          148.00000000 
       12016.03352692            1.00000000        69574.58593750       179662.18750000        93960.39062500       221723.59375000        59776.99218750         1483.00000000          140.00000000          123.00000000           67.00000000          151.00000000          186.00000000          189.00000000          152.00000000          149.00000000          126.00000000          147.00000000           91.00000000          148.00000000 
       12019.05171001            1.00000000        69476.57812500       179355.17187500        93565.38281250       221964.57812500        59792.97656250         1483.00000000          140.00000000          123.00000000           67.00000000          151.00000000          186.00000000          189.00000000          152.00000000          149.00000000          126.00000000          147.00000000           91.00000000          148.00000000 
       12021.31635637            1.00000000        69560.58593750       179701.18750000        93632.39062500       222790.59375000        60039.99218750         1483.00000000          140.00000000          123.00000000           67.00000000          151.00000000          186.00000000          189.00000000          152.00000000          149.00000000          126.00000000          147.00000000           91.00000000          148.00000000 
       12024.65199417            1.00000000        69466.58593750       179286.18750000        93296.38281250       222804.59375000        59911.98437500         1483.00000000          140.00000000          123.00000000           67.00000000          151.00000000          186.00000000          189.00000000          152.00000000          149.00000000          126.00000000          147.00000000           91.00000000          148.00000000 
       12027.29666306            1.00000000        69456.58593750       179394.18750000        93381.38281250       223277.59375000        59911.98437500         1483.00000000          140.00000000          123.00000000           67.00000000          151.00000000          186.00000000          189.00000000          152.00000000          149.00000000          126.00000000          147.00000000           91.00000000          148.00000000 
       12030.16305235            1.00000000        69488.58593750       179419.18750000        93360.38281250       223478.59375000        59955.98437500         1483.00000000          140.00000000          123.00000000           67.00000000          151.00000000          186.00000000          189.00000000          152.00000000          149.00000000          126.00000000          147.00000000           91.00000000          148.00000000 
       12032.77865955            1.00000000        69438.58593750       179177.18750000        93315.38281250       223269.59375000        60052.98437500         1483.00000000          140.00000000          123.00000000           67.00000000          151.00000000          186.00000000          189.00000000          152.00000000          149.00000000          126.00000000          147.00000000           91.00000000          148.00000000 
       12035.71077041            1.00000000        69327.58593750       178748.18750000        93269.38281250       222704.59375000        60217.98437500         1483.00000000          140.00000000          123.00000000           67.00000000          151.00000000          186.00000000          189.00000000          152.00000000          149.00000000          126.00000000          147.00000000           91.00000000          148.00000000 
       12038.83364215            1.00000000        69281.58593750       178841.18750000        93548.38281250       222915.59375000        60745.98437500         1483.00000000          140.00000000          123.00000000           67.00000000          151.00000000          186.00000000          189.00000000          152.00000000          149.00000000          126.00000000          147.00000000           91.00000000          148.00000000 
       12041.64247510            1.00000000        69218.58593750       178417.18750000        93588.38281250       221987.59375000        61094.98437500         1483.00000000          140.00000000          123.00000000           67.00000000          151.00000000          186.00000000          189.00000000          152.00000000          149.00000000          126.00000000          147.00000000           91.00000000          148.00000000 
       12044.86322163            1.00000000        68904.58593750       176952.18750000        93076.38281250       220165.59375000        61065.98437500         1483.00000000          140.00000000          123.00000000           67.00000000          151.00000000          186.00000000          189.00000000          152.00000000          149.00000000          126.00000000          147.00000000           91.00000000          148.00000000 
       12047.80130738            1.00000000        68678.58593750       178158.18750000        93830.38281250       221684.59375000        61773.98437500         1483.00000000          140.00000000          123.00000000           67.00000000          151.00000000          186.00000000          189.00000000          152.00000000          149.00000000          126.00000000          147.00000000           91.00000000          148.00000000 
       12051.18348393            1.00000000        69112.58593750       178259.18750000        93974.39062500       221846.59375000        61867.99218750         1483.00000000          140.00000000          123.00000000           67.00000000          151.00000000          186.00000000          189.00000000          152.00000000          149.00000000          126.00000000          147.00000000           91.00000000          148.00000000 
       12053.99816321            1.00000000        69074.57812500       177994.17187500        93834.38281250       221874.57812500        61658.97656250         1483.00000000          140.00000000          123.00000000           67.00000000          151.00000000          186.00000000          189.00000000          152.00000000          149.00000000          126.00000000          147.00000000           91.00000000          148.00000000 
       12057.25726547            1.00000000        69094.58593750       177934.18750000        93825.38281250       221944.59375000        61421.98437500         1483.00000000          140.00000000          123.00000000           67.00000000          151.00000000          186.00000000          189.00000000          152.00000000          149.00000000          126.00000000          147.00000000           91.00000000          148.00000000 
       12060.07482224            1.00000000        69099.58593750       178214.18750000        93924.38281250       222799.59375000        61360.98437500         1483.00000000          140.00000000          123.00000000           67.00000000          151.00000000          186.00000000          189.00000000          152.00000000          149.00000000          126.00000000          147.00000000           91.00000000          148.00000000 
       12063.55904098            1.00000000        68999.58593750       177715.18750000        93653.38281250       222468.59375000        60981.98437500         1483.00000000          140.00000000          123.00000000           67.00000000          151.00000000          186.00000000          189.00000000          152.00000000          149.00000000          126.00000000          147.00000000           91.00000000          148.00000000 
       12066.72828416            1.00000000        68971.58593750       177660.18750000        93603.38281250       222784.59375000        60880.98437500         1483.00000000          140.00000000          123.00000000           67.00000000          151.00000000          186.00000000          189.00000000          152.00000000          149.00000000          126.00000000          147.00000000           91.00000000          148.00000000 
       12070.12124446            1.00000000        69017.58593750       177870.18750000        93807.38281250       223449.59375000        60887.98437500         1483.00000000          140.00000000          123.00000000           67.00000000          151.00000000          186.00000000          189.00000000          152.00000000          149.00000000          126.00000000          147.00000000           91.00000000          148.00000000 
       12073.51613971            1.00000000        68978.58593750       177703.18750000        93868.38281250       223246.59375000        60939.98437500         1483.00000000          140.00000000          123.00000000           67.00000000          151.00000000          186.00000000          189.00000000          152.00000000          149.00000000          126.00000000          147.00000000           91.00000000          148.00000000 
       12077.07174941            1.00000000        68902.58593750       177530.18750000        93948.38281250       222965.59375000        60977.98437500         1483.00000000          140.00000000          123.00000000           67.00000000          151.00000000          186.00000000          189.00000000          152.00000000          149.00000000          126.00000000          147.00000000           91.00000000          148.00000000 
       12080.24819545            1.00000000        68804.58593750       177245.18750000        94073.38281250       222479.59375000        61127.98437500         1483.00000000          140.00000000          123.00000000           67.00000000          151.00000000          186.00000000          189.00000000          152.00000000          149.00000000          126.00000000          147.00000000           91.00000000          148.00000000 
       12083.42633584            1.00000000        68846.58593750       177472.18750000        94487.38281250       222750.59375000        61501.98437500         1483.00000000          140.00000000          123.00000000           67.00000000          151.00000000          186.00000000          189.00000000          152.00000000          149.00000000          126.00000000          147.00000000           91.00000000          148.00000000 
       12087.08329370            1.00000000        68742.58593750       177023.18750000        94570.39062500       221878.59375000        61507.99218750         1483.00000000          140.00000000          123.00000000           67.00000000          151.00000000          186.00000000          189.00000000          152.00000000          149.00000000          126.00000000          147.00000000           91.00000000          148.00000000 
       12090.45604280            1.00000000        68651.58593750       176796.18750000        94704.39062500       221521.59375000        61584.99218750         1483.00000000          140.00000000          123.00000000           67.00000000          151.00000000          186.00000000          189.00000000          152.00000000          149.00000000          126.00000000          147.00000000           91.00000000          148.00000000 
       12094.43579388            1.00000000        68583.58593750       176611.18750000        94888.38281250       221316.59375000        61756.98437500         1483.00000000          140.00000000          123.00000000           67.00000000          151.00000000          186.00000000          189.00000000          152.00000000          149.00000000          126.00000000          147.00000000           91.00000000          148.00000000 
       12097.62150754            1.00000000        67912.58593750       175819.18750000        94606.38281250       220324.59375000        61683.98437500         1483.00000000          140.00000000          123.00000000           67.00000000          151.00000000          186.00000000          189.00000000          152.00000000          149.00000000          126.00000000          147.00000000           91.00000000          148.00000000 
       12101.66981706            1.00000000        67407.58593750       171739.18750000        92536.38281250       215019.59375000        60731.98437500         1483.00000000          140.00000000          123.00000000           67.00000000          151.00000000          186.00000000          189.00000000          152.00000000          149.00000000          126.00000000          147.00000000           91.00000000          148.00000000 
       12105.05082455            1.00000000        67837.58593750       175972.18750000        94857.39062500       220699.59375000        62647.99218750         1483.00000000          140.00000000          123.00000000           67.00000000          151.00000000          186.00000000          189.00000000          152.00000000          149.00000000          126.00000000          147.00000000           91.00000000          148.00000000 
       12108.56144268            1.00000000        67900.58593750       174564.18750000        94190.38281250       219315.59375000        62449.98437500         1483.00000000          140.00000000          123.00000000           67.00000000          151.00000000          186.00000000          189.00000000          152.00000000          149.00000000          126.00000000          147.00000000           91.00000000          148.00000000 
       12112.42550748            1.00000000        67959.58593750       175384.18750000        94708.38281250       220501.59375000        62964.98437500         1483.00000000          140.00000000          123.00000000           67.00000000          151.00000000          186.00000000          189.00000000          152.00000000          149.00000000          126.00000000          147.00000000           91.00000000          148.00000000 
       12116.13224804            1.00000000        67952.58593750       172504.18750000        93176.38281250       217161.59375000        62130.98437500         1483.00000000          140.00000000          123.00000000           67.00000000          151.00000000          186.00000000          189.00000000          152.00000000          149.00000000          126.00000000          147.00000000           91.00000000          148.00000000 
       12120.25710092            1.00000000        68016.59375000       175792.20312500        94970.39843750       221424.59375000        63326.99609375         1483.00000000          140.00000000          123.00000000           67.00000000          151.00000000          186.00000000          189.00000000          152.00000000          149.00000000          126.00000000          147.00000000           91.00000000          148.00000000 
       12123.96870277            1.00000000        68138.58593750       176259.18750000        95185.38281250       222476.59375000        63508.98437500         1483.00000000          140.00000000          123.00000000           67.00000000          151.00000000          186.00000000          189.00000000          152.00000000          149.00000000          126.00000000          147.00000000           91.00000000          148.00000000 
       12127.84274365            1.00000000        68242.58593750       176116.18750000        95076.38281250       222925.59375000        63392.98437500         1483.00000000          140.00000000          123.00000000           67.00000000          151.00000000          186.00000000          189.00000000          152.00000000          149.00000000          126.00000000          147.00000000           91.00000000          148.00000000 
       12131.97568438            1.00000000        68278.58593750       176101.18750000        95000.38281250       223283.59375000        63221.98437500         1483.00000000          140.00000000          123.00000000           67.00000000          151.00000000          186.00000000          189.00000000          152.00000000          149.00000000          126.00000000          147.00000000           91.00000000          148.00000000 
       12135.24561296            1.00000000        68176.58593750       175338.18750000        94570.39062500       222772.59375000        62779.99218750         1483.00000000          140.00000000          123.00000000           67.00000000          151.00000000          186.00000000          189.00000000          152.00000000          149.00000000          126.00000000          147.00000000           91.00000000          148.00000000 
       12139.60829810            1.00000000        68205.58593750       175748.18750000        94791.38281250       223649.59375000        62739.98437500         1483.00000000          140.00000000          123.00000000           67.00000000          151.00000000          186.00000000          189.00000000          152.00000000          149.00000000          126.00000000          147.00000000           91.00000000          148.00000000 
       12143.84571071            1.00000000        68298.58593750       175520.18750000        94784.38281250       223586.59375000        62477.98437500         1483.00000000          140.00000000          123.00000000           67.00000000          151.00000000          186.00000000          189.00000000          152.00000000          149.00000000          126.00000000          147.00000000           91.00000000          148.00000000 
       12147.41131107            1.00000000        68370.58593750       175486.18750000        94919.38281250       223621.59375000        62430.98437500         1483.00000000          140.00000000          123.00000000           67.00000000          151.00000000          186.00000000          189.00000000          152.00000000          149.00000000          126.00000000          147.00000000           91.00000000          148.00000000 
       12152.16874757            1.00000000        68171.58593750       174431.18750000        94557.39062500       222457.59375000        62240.99218750         1483.00000000          140.00000000          123.00000000           67.00000000          151.00000000          186.00000000          189.00000000          152.00000000          149.00000000          126.00000000          147.00000000           91.00000000          148.00000000 
       12156.18979594            1.00000000        68192.58593750       175307.18750000        95363.38281250       223451.59375000        62952.98437500         1483.00000000          140.00000000          123.00000000           67.00000000          151.00000000          186.00000000          189.00000000          152.00000000          149.00000000          126.00000000          147.00000000           91.00000000          148.00000000 
       12159.85934441            1.00000000        68177.58593750       175128.18750000        95555.38281250       223002.59375000        63334.98437500         1483.00000000          140.00000000          123.00000000           67.00000000          151.00000000          186.00000000          189.00000000          152.00000000          149.00000000          126.00000000          147.00000000           91.00000000          148.00000000 
       12164.46555074            1.00000000        67904.58593750       174729.18750000        95697.38281250       222162.59375000        63844.98437500         1483.00000000          140.00000000          123.00000000           67.00000000          151.00000000          186.00000000          189.00000000          152.00000000          149.00000000          126.00000000          147.00000000           91.00000000          148.00000000 
       12168.65608146            1.00000000        67929.58593750       174987.18750000        96055.38281250       222564.59375000        64515.98437500         1483.00000000          140.00000000          123.00000000           67.00000000          151.00000000          186.00000000          189.00000000          152.00000000          149.00000000          126.00000000          147.00000000           91.00000000          148.00000000 
       12172.62366333            1.00000000        67859.59375000       174984.20312500        96235.39843750       222668.59375000        64975.99609375         1483.00000000          140.00000000          123.00000000           67.00000000          151.00000000          186.00000000          189.00000000          152.00000000          149.00000000          126.00000000          147.00000000           91.00000000          148.00000000 
       12177.46572818            1.00000000        67724.58593750       174721.18750000        96195.38281250       222386.59375000        65148.98437500         1483.00000000          140.00000000          123.00000000           67.00000000          151.00000000          186.00000000          189.00000000          152.00000000          149.00000000          126.00000000          147.00000000           91.00000000          148.00000000 
       12181.66534367            1.00000000        67667.58593750       174569.18750000        96256.38281250       222388.59375000        65186.98437500         1483.00000000          140.00000000          123.00000000           67.00000000          151.00000000          186.00000000          189.00000000          152.00000000          149.00000000          126.00000000          147.00000000           91.00000000          148.00000000 
       12185.57685539            1.00000000        67648.58593750       174498.18750000        96265.38281250       222580.59375000        65208.98437500         1483.00000000          140.00000000          123.00000000           67.00000000          151.00000000          186.00000000          189.00000000          152.00000000          149.00000000          126.00000000          147.00000000           91.00000000          148.00000000 
       12190.36464661            1.00000000        67586.58593750       174461.18750000        96391.39062500       223029.59375000        65363.99218750         1483.00000000          140.00000000          123.00000000           67.00000000          151.00000000          186.00000000          189.00000000          152.00000000          149.00000000          126.00000000          147.00000000           91.00000000          148.00000000 
       12195.02669943            1.00000000        67481.58593750       174393.18750000        96598.38281250       222831.59375000        65612.98437500         1483.00000000          140.00000000          123.00000000           67.00000000          151.00000000          186.00000000          189.00000000          152.00000000          149.00000000          126.00000000          147.00000000           91.00000000          148.00000000 
       12199.14137128            1.00000000        67573.58593750       174489.18750000        96866.38281250       223127.59375000        65910.98437500         1483.00000000          140.00000000          123.00000000           67.00000000          151.00000000          186.00000000          189.00000000          152.00000000          149.00000000          126.00000000          147.00000000           91.00000000          148.00000000 
       12203.90753806            1.00000000        67392.57812500       173898.17187500        96747.38281250       222295.57812500        65807.97656250         1483.00000000          140.00000000          123.00000000           67.00000000          151.00000000          186.00000000          189.00000000          152.00000000          149.00000000          126.00000000          147.00000000           91.00000000          148.00000000 
       12208.74240403            1.00000000        67388.58593750       174075.18750000        97077.39062500       222726.59375000        65967.99218750         1483.00000000          140.00000000          123.00000000           67.00000000          151.00000000          186.00000000          189.00000000          152.00000000          149.00000000          126.00000000          147.00000000           91.00000000          148.00000000 
       12212.76901188            1.00000000        67289.58593750       173755.18750000        97067.38281250       222496.59375000        65856.98437500         1483.00000000          140.00000000          123.00000000           67.00000000          151.00000000          186.00000000          189.00000000          152.00000000          149.00000000          126.00000000          147.00000000           91.00000000          148.00000000 
       12217.51346980            1.00000000        67288.58593750       173759.18750000        97235.39062500       222604.59375000        65855.99218750         1483.00000000          140.00000000          123.00000000           67.00000000          151.00000000          186.00000000          189.00000000          152.00000000          149.00000000          126.00000000          147.00000000           91.00000000          148.00000000 
       12222.61955732            1.00000000        67221.58593750       173492.18750000        97237.38281250       222410.59375000        65780.98437500         1483.00000000          140.00000000          123.00000000           67.00000000          151.00000000          186.00000000          189.00000000          152.00000000          149.00000000          126.00000000          147.00000000           91.00000000          148.00000000 
       12227.50202689            1.00000000        67197.58593750       173383.18750000        97375.39062500       222383.59375000        65960.99218750         1483.00000000          140.00000000          123.00000000           67.00000000          151.00000000          186.00000000          189.00000000          152.00000000          149.00000000          126.00000000          147.00000000           91.00000000          148.00000000 
       12232.02997891            1.00000000        67470.58593750       174383.18750000        98110.39062500       223741.59375000        66689.99218750         1483.00000000          140.00000000          123.00000000           67.00000000          151.00000000          186.00000000          189.00000000          152.00000000          149.00000000          126.00000000          147.00000000           91.00000000          148.00000000 
       12236.49610725            1.00000000        67398.58593750       174010.18750000        98144.38281250       223524.59375000        67015.98437500         1483.00000000          140.00000000          123.00000000           67.00000000          151.00000000          186.00000000          189.00000000          152.00000000          149.00000000          126.00000000          147.00000000           91.00000000          148.00000000 
       12241.58565173            1.00000000        67346.58593750       173832.18750000        98341.38281250       223239.59375000        67578.98437500         1483.00000000          140.00000000          123.00000000           67.00000000          151.00000000          186.00000000          189.00000000          152.00000000          149.00000000          126.00000000          147.00000000           91.00000000          148.00000000 
       12246.64682205            1.00000000        67278.58593750       173683.18750000        98508.38281250       223053.59375000        67967.98437500         1483.00000000          140.00000000          123.00000000           67.00000000          151.00000000          186.00000000          189.00000000          152.00000000          149.00000000          126.00000000          147.00000000           91.00000000          148.00000000 
       12251.18915728            1.00000000        67256.58593750       173834.18750000        98819.39062500       223259.59375000        68374.99218750         1483.00000000          140.00000000          123.00000000           67.00000000          151.00000000          186.00000000          189.00000000          152.00000000          149.00000000          126.00000000          147.00000000           91.00000000          148.00000000 
       12256.06207266            1.00000000        67033.59375000       173267.20312500        98634.39843750       222825.59375000        68316.00000000         1483.00000000          140.00000000          123.00000000           67.00000000          151.00000000          186.00000000          189.00000000          152.00000000          149.00000000          126.00000000          147.00000000           91.00000000          148.00000000 
       12261.29910929            1.00000000        67049.58593750       173327.18750000        98749.38281250       223086.59375000        68506.98437500         1483.00000000          140.00000000          123.00000000           67.00000000          151.00000000          186.00000000          189.00000000          152.00000000          149.00000000          126.00000000          147.00000000           91.00000000          148.00000000 
       12266.14740767            1.00000000        66893.58593750       172884.18750000        98585.38281250       222961.59375000        68435.98437500         1483.00000000          140.00000000          123.00000000           67.00000000          151.00000000          186.00000000          189.00000000          152.00000000          149.00000000          126.00000000          147.00000000           91.00000000          148.00000000 
       12271.32758359            1.00000000        66081.58593750       171441.18750000        97847.38281250       221472.59375000        68039.98437500         1483.00000000          140.00000000          123.00000000           67.00000000          151.00000000          186.00000000          189.00000000          152.00000000          149.00000000          126.00000000          147.00000000           91.00000000          148.00000000 
       12275.98696912            1.00000000        66855.58593750       172697.18750000        98648.39062500       223372.59375000        68759.99218750         1483.00000000          140.00000000          123.00000000           67.00000000          151.00000000          186.00000000          189.00000000          152.00000000          149.00000000          126.00000000          147.00000000           91.00000000          148.00000000 
       12281.33984065            1.00000000        66125.58593750       168677.18750000        96509.38281250       218528.59375000        67365.98437500         1483.00000000          140.00000000          123.00000000           67.00000000          151.00000000          186.00000000          189.00000000          152.00000000          149.00000000          126.00000000          147.00000000           91.00000000          148.00000000 
       12286.79609517            1.00000000        66757.58593750       172581.18750000        99007.38281250       223444.59375000        69077.98437500         1483.00000000          140.00000000          123.00000000           67.00000000          151.00000000          186.00000000          189.00000000          152.00000000          149.00000000          126.00000000          147.00000000           91.00000000          148.00000000 
       12291.86231622            1.00000000        66828.58593750       172620.18750000        99255.38281250       223766.59375000        69274.98437500         1483.00000000          140.00000000          123.00000000           67.00000000          151.00000000          186.00000000          189.00000000          152.00000000          149.00000000          126.00000000          147.00000000           91.00000000          148.00000000 
       12297.32805096            1.00000000        66840.58593750       172604.18750000        99596.39062500       223681.59375000        69526.99218750         1483.00000000          140.00000000          123.00000000           67.00000000          151.00000000          186.00000000          189.00000000          152.00000000          149.00000000          126.00000000          147.00000000           91.00000000          148.00000000 
       12302.13933601            1.00000000        66784.59375000       172395.20312500        99720.39843750       223493.59375000        69663.00000000         1483.00000000          140.00000000          123.00000000           67.00000000          151.00000000          186.00000000          189.00000000          152.00000000          149.00000000          126.00000000          147.00000000           91.00000000          148.00000000 
       12307.54834440            1.00000000        66669.58593750       172076.18750000        99791.38281250       223224.59375000        69800.98437500         1483.00000000          140.00000000          123.00000000           67.00000000          151.00000000          186.00000000          189.00000000          152.00000000          149.00000000          126.00000000          147.00000000           91.00000000          148.00000000 
       12313.12730602            1.00000000        66594.58593750       172051.18750000        99996.38281250       223274.59375000        70012.98437500         1483.00000000          140.00000000          123.00000000           67.00000000          151.00000000          186.00000000          189.00000000          152.00000000          149.00000000          126.00000000          147.00000000           91.00000000          148.00000000 
       12318.47999930            1.00000000        66629.58593750       171761.18750000       100035.38281250       222976.59375000        70230.98437500         1483.00000000          140.00000000          123.00000000           67.00000000          151.00000000          186.00000000          189.00000000          152.00000000          149.00000000          126.00000000          147.00000000           91.00000000          148.00000000 
       12324.13518237            1.00000000        66565.58593750       171670.18750000       100185.39062500       223092.59375000        70588.99218750         1483.00000000          140.00000000          123.00000000           67.00000000          151.00000000          186.00000000          189.00000000          152.00000000          149.00000000          126.00000000          147.00000000           91.00000000          148.00000000 
       12329.33200250            1.00000000        66529.58593750       171458.18750000       100328.38281250       222858.59375000        70927.98437500         1483.00000000          140.00000000          123.00000000           67.00000000          151.00000000          186.00000000          189.00000000          152.00000000          149.00000000          126.00000000          147.00000000           91.00000000          148.00000000 
       12334.59955197            1.00000000        66380.58593750       171198.18750000       100438.38281250       222608.59375000        71329.98437500         1483.00000000          140.00000000          123.00000000           67.00000000          151.00000000          186.00000000          189.00000000          152.00000000          149.00000000          126.00000000          147.00000000           91.00000000          148.00000000 
       12340.13704791            1.00000000        66384.57812500       171092.17187500       100675.38281250       222630.57812500        71716.97656250         1483.00000000          140.00000000          123.00000000           67.00000000          151.00000000          186.00000000          189.00000000          152.00000000          149.00000000          126.00000000          147.00000000           91.00000000          148.00000000 
       12345.97842646            1.00000000        66276.58593750       170896.18750000       100867.39062500       222321.59375000        72012.99218750         1483.00000000          140.00000000          123.00000000           67.00000000          151.00000000          186.00000000          189.00000000          152.00000000          149.00000000          126.00000000          147.00000000           91.00000000          148.00000000 
       12351.85864823            1.00000000        66200.58593750       170684.18750000       100934.39062500       222108.59375000        72211.99218750         1483.00000000          140.00000000          123.00000000           67.00000000          151.00000000          186.00000000          189.00000000          152.00000000          149.00000000          126.00000000          147.00000000           91.00000000          148.00000000 
       12357.57820141            1.00000000        66110.58593750       170423.18750000       101003.39062500       222232.59375000        72315.99218750         1483.00000000          140.00000000          123.00000000           67.00000000          151.00000000          186.00000000          189.00000000          152.00000000          149.00000000          126.00000000          147.00000000           91.00000000          148.00000000 
       12363.33642376            1.00000000        66081.58593750       170714.18750000       101287.38281250       223090.59375000        72589.98437500         1483.00000000          140.00000000          123.00000000           67.00000000          151.00000000          186.00000000          189.00000000          152.00000000          149.00000000          126.00000000          147.00000000           91.00000000          148.00000000 
       12368.50014431            1.00000000        66131.58593750       170363.18750000       101287.38281250       222646.59375000        72631.98437500         1483.00000000          140.00000000          123.00000000           67.00000000          151.00000000          186.00000000          189.00000000          152.00000000          149.00000000          126.00000000          147.00000000           91.00000000          148.00000000 
       12374.30204584            1.00000000        66121.58593750       170617.18750000       101611.39062500       223116.59375000        72946.99218750         1483.00000000          140.00000000          123.00000000           67.00000000          151.00000000          186.00000000          189.00000000          152.00000000          149.00000000          126.00000000          147.00000000           91.00000000          148.00000000 
       12380.17624856            1.00000000        65980.58593750       170234.18750000       101659.39062500       222919.59375000        73043.99218750         1483.00000000          140.00000000          123.00000000           67.00000000          151.00000000          186.00000000          189.00000000          152.00000000          149.00000000          126.00000000          147.00000000           91.00000000          148.00000000 
       12386.42378294            1.00000000        65927.58593750       170137.18750000       101869.38281250       222938.59375000        73332.98437500         1483.00000000          140.00000000          123.00000000           67.00000000          151.00000000          186.00000000          189.00000000          152.00000000          149.00000000          126.00000000          147.00000000           91.00000000          148.00000000 
       12392.44348913            1.00000000        65820.57812500       169818.17187500       101969.38281250       222522.57812500        73539.97656250         1483.00000000          140.00000000          123.00000000           67.00000000          151.00000000          186.00000000          189.00000000          152.00000000          149.00000000          126.00000000          147.00000000           91.00000000          148.00000000 
       12398.50261809            1.00000000        65497.58984375       169323.18750000       101963.39062500       221885.59375000        73662.99218750         1483.00000000          140.00000000          123.00000000           67.00000000          151.00000000          186.00000000          189.00000000          152.00000000          149.00000000          126.00000000          147.00000000           91.00000000          148.00000000 
       12404.73538290            1.00000000        65591.58593750       169264.18750000       102248.39062500       222117.59375000        73997.99218750         1483.00000000          140.00000000          123.00000000           67.00000000          151.00000000          186.00000000          189.00000000          152.00000000          149.00000000          126.00000000          147.00000000           91.00000000          148.00000000 
       12410.67246001            1.00000000        65677.58593750       169409.18750000       102550.38281250       222496.59375000        74471.98437500         1483.00000000          140.00000000          123.00000000           67.00000000          151.00000000          186.00000000          189.00000000          152.00000000          149.00000000          126.00000000          147.00000000           91.00000000          148.00000000 
       12416.95122266            1.00000000        65619.58593750       169256.18750000       102704.38281250       222476.59375000        74750.98437500         1483.00000000          140.00000000          123.00000000           67.00000000          151.00000000          186.00000000          189.00000000          152.00000000          149.00000000          126.00000000          147.00000000           91.00000000          148.00000000 
       12422.59752678            1.00000000        65442.58203125       168809.18750000       102620.38281250       222175.59375000        74909.98437500         1483.00000000          140.00000000          123.00000000           67.00000000          151.00000000          186.00000000          189.00000000          152.00000000          149.00000000          126.00000000          147.00000000           91.00000000          148.00000000 
       12428.72022925            1.00000000        65415.58984375       168736.18750000       102793.39062500       222325.59375000        75310.99218750         1483.00000000          140.00000000          123.00000000           67.00000000          151.00000000          186.00000000          189.00000000          152.00000000          149.00000000          126.00000000          147.00000000           91.00000000          148.00000000 
       12435.08489463            1.00000000        65522.58203125       169151.18750000       103280.38281250       222851.59375000        75900.98437500         1483.00000000          140.00000000          123.00000000           67.00000000          151.00000000          186.00000000          189.00000000          152.00000000          149.00000000          126.00000000          147.00000000           91.00000000          148.00000000 
       12441.22007563            1.00000000        65442.58203125       168839.18750000       103411.38281250       222723.59375000        76191.98437500         1483.00000000          140.00000000          123.00000000           67.00000000          151.00000000          186.00000000          189.00000000          152.00000000          149.00000000          126.00000000          147.00000000           91.00000000          148.00000000 
       12447.53019624            1.00000000        65065.58203125       167027.18750000       102666.38281250       220076.59375000        75792.98437500         1483.00000000          140.00000000          123.00000000           67.00000000          151.00000000          186.00000000          189.00000000          152.00000000          149.00000000          126.00000000          147.00000000           91.00000000          148.00000000 
       12453.98198950            1.00000000        65055.58984375       167618.18750000       103379.39062500       221188.59375000        76424.99218750         1483.00000000          140.00000000          123.00000000           67.00000000          151.00000000          186.00000000          189.00000000          152.00000000          149.00000000          126.00000000          147.00000000           91.00000000          148.00000000 
       12460.54205866            1.00000000        65226.58984375       168244.18750000       103999.39062500       222343.59375000        77016.99218750         1483.00000000          140.00000000          123.00000000           67.00000000          151.00000000          186.00000000          189.00000000          152.00000000          149.00000000          126.00000000          147.00000000           91.00000000          148.00000000 
       12467.21073954            1.00000000        65036.59765625       167747.20312500       103967.39843750       222053.59375000        77155.00000000         1483.00000000          140.00000000          123.00000000           67.00000000          151.00000000          186.00000000          189.00000000          152.00000000          149.00000000          126.00000000          147.00000000           91.00000000          148.00000000 
       12473.68322011            1.00000000        64930.58203125       167759.18750000       104195.38281250       221968.59375000        77464.98437500         1483.00000000          140.00000000          123.00000000           67.00000000          151.00000000          186.00000000          189.00000000          152.00000000          149.00000000          126.00000000          147.00000000           91.00000000          148.00000000 
       12480.23039346            1.00000000        65042.58203125       167699.18750000       104485.38281250       222239.59375000        77750.98437500         1483.00000000          140.00000000          123.00000000           67.00000000          151.00000000          186.00000000          189.00000000          152.00000000          149.00000000          126.00000000          147.00000000           91.00000000          148.00000000 
       12486.92044278            1.00000000        65024.58984375       167525.18750000       104712.39062500       222247.59375000        78031.99218750         1483.00000000          140.00000000          123.00000000           67.00000000          151.00000000          186.00000000          189.00000000          152.00000000          149.00000000          126.00000000          147.00000000           91.00000000          148.00000000 
       12493.71980661            1.00000000        64581.58984375       166965.18750000       104651.39062500       221772.59375000        78176.99218750         1483.00000000          140.00000000          123.00000000           67.00000000          151.00000000          186.00000000          189.00000000          152.00000000          149.00000000          126.00000000          147.00000000           91.00000000          148.00000000 
       12500.22020400            1.00000000        64842.58984375       167031.18750000       105072.39062500       221723.59375000        78625.99218750         1483.00000000          140.00000000          123.00000000           67.00000000          151.00000000          186.00000000          189.00000000          152.00000000          149.00000000          126.00000000          147.00000000           91.00000000          148.00000000 
       12506.76154350            1.00000000        64844.58203125       166806.18750000       105253.38281250       221528.59375000        78960.98437500         1483.00000000          140.00000000          123.00000000           67.00000000          151.00000000          186.00000000          189.00000000          152.00000000          149.00000000          126.00000000          147.00000000           91.00000000          148.00000000 
       12513.65106696            1.00000000        64792.58203125       166757.18750000       105578.38281250       221562.59375000        79415.98437500         1483.00000000          140.00000000          123.00000000           67.00000000          151.00000000          186.00000000          189.00000000          152.00000000          149.00000000          126.00000000          147.00000000           91.00000000          148.00000000 
       12520.65077424            1.00000000        64734.58203125       166455.18750000       105709.38281250       221245.59375000        79745.98437500         1483.00000000          140.00000000          123.00000000           67.00000000          151.00000000          186.00000000          189.00000000          152.00000000          149.00000000          126.00000000          147.00000000           91.00000000          148.00000000 
       12527.21379396            1.00000000        64673.58203125       166121.18750000       105753.38281250       221031.59375000        80017.98437500         1483.00000000          140.00000000          123.00000000           67.00000000          151.00000000          186.00000000          189.00000000          152.00000000          149.00000000          126.00000000          147.00000000           91.00000000          148.00000000 
       12533.81802263            1.00000000        64640.58984375       166153.18750000       105952.39062500       221272.59375000        80420.99218750         1483.00000000          140.00000000          123.00000000           67.00000000          151.00000000          186.00000000          189.00000000          152.00000000          149.00000000          126.00000000          147.00000000           91.00000000          148.00000000 
       12540.87488094            1.00000000        64470.58203125       165537.18750000       105839.38281250       220684.59375000        80513.98437500         1483.00000000          140.00000000          123.00000000           67.00000000          151.00000000          186.00000000          189.00000000          152.00000000          149.00000000          126.00000000          147.00000000           91.00000000          148.00000000 
       12547.90547640            1.00000000        64441.58984375       165645.18750000       106177.39062500       220996.59375000        81002.99218750         1483.00000000          140.00000000          123.00000000           67.00000000          151.00000000          186.00000000          189.00000000          152.00000000          149.00000000          126.00000000          147.00000000           91.00000000          148.00000000 
       12554.77229178            1.00000000        64422.58984375       165557.18750000       106456.39062500       221334.59375000        81419.99218750         1483.00000000          140.00000000          123.00000000           67.00000000          151.00000000          186.00000000          189.00000000          152.00000000          149.00000000          126.00000000          147.00000000           91.00000000          148.00000000 
       12561.61233158            1.00000000        64338.58203125       165502.18750000       106723.38281250       221381.59375000        81870.98437500         1483.00000000          140.00000000          123.00000000           67.00000000          151.00000000          186.00000000          189.00000000          152.00000000          149.00000000          126.00000000          147.00000000           91.00000000          148.00000000 
       12568.80422297            1.00000000        64317.58203125       165192.18750000       106821.38281250       220966.59375000        82067.98437500         1483.00000000          140.00000000          123.00000000           67.00000000          151.00000000          186.00000000          189.00000000          152.00000000          149.00000000          126.00000000          147.00000000           91.00000000          148.00000000 
       12575.86657689            1.00000000        64230.58984375       165075.18750000       107066.39062500       221069.59375000        82464.99218750         1483.00000000          140.00000000          123.00000000           67.00000000          151.00000000          186.00000000          189.00000000          152.00000000          149.00000000          126.00000000          147.00000000           91.00000000          148.00000000 
       12582.86795426            1.00000000        64206.58203125       164981.18750000       107349.38281250       221132.59375000        82804.98437500         1483.00000000          140.00000000          123.00000000           67.00000000          151.00000000          186.00000000          189.00000000          152.00000000          149.00000000          126.00000000          147.00000000           91.00000000          148.00000000 
       12589.84268273            1.00000000        64149.58203125       164895.18750000       107541.38281250       221165.59375000        83102.98437500         1483.00000000          140.00000000          123.00000000           67.00000000          151.00000000          186.00000000          189.00000000          152.00000000          149.00000000          126.00000000          147.00000000           91.00000000          148.00000000 
       12597.20570940            1.00000000        64038.58984375       164666.18750000       107671.39062500       221121.59375000        83364.99218750         1483.00000000          140.00000000          123.00000000           67.00000000          151.00000000          186.00000000          189.00000000          152.00000000          149.00000000          126.00000000          147.00000000           91.00000000          148.00000000 
       12604.57746241            1.00000000        63825.59765625       164233.20312500       107642.39843750       220860.59375000        83505.00000000         1483.00000000          140.00000000          123.00000000           67.00000000          151.00000000          186.00000000          189.00000000          152.00000000          149.00000000          126.00000000          147.00000000           91.00000000          148.00000000 
       12611.61125932            1.00000000        63926.58203125       164242.18750000       107929.38281250       220985.59375000        83941.98437500         1483.00000000          140.00000000          123.00000000           67.00000000          151.00000000          186.00000000          189.00000000          152.00000000          149.00000000          126.00000000          147.00000000           91.00000000          148.00000000 
       12618.75713487            1.00000000        63865.58203125       163900.18750000       108072.38281250       220630.59375000        84223.98437500         1483.00000000          140.00000000          123.00000000           67.00000000          151.00000000          186.00000000          189.00000000          152.00000000          149.00000000          126.00000000          147.00000000           91.00000000          148.00000000 
       12626.18920898            1.00000000        63765.58203125       163808.18750000       108321.38281250       220680.59375000        84682.98437500         1483.00000000          140.00000000          123.00000000           67.00000000          151.00000000          186.00000000          189.00000000          152.00000000          149.00000000          126.00000000          147.00000000           91.00000000          148.00000000 
       12633.56057036            1.00000000        63691.58203125       163682.18750000       108600.38281250       220670.59375000        85152.98437500         1483.00000000          140.00000000          123.00000000           67.00000000          151.00000000          186.00000000          189.00000000          152.00000000          149.00000000          126.00000000          147.00000000           91.00000000          148.00000000 
       12640.80132439            1.00000000        63667.57421875       163362.17187500       108721.38281250       220156.57812500        85444.97656250         1483.00000000          140.00000000          123.00000000           67.00000000          151.00000000          186.00000000          189.00000000          152.00000000          149.00000000          126.00000000          147.00000000           91.00000000          148.00000000 
       12648.01561542            1.00000000        63586.58203125       163157.18750000       108883.38281250       220068.59375000        85884.98437500         1483.00000000          140.00000000          123.00000000           67.00000000          151.00000000          186.00000000          189.00000000          152.00000000          149.00000000          126.00000000          147.00000000           91.00000000          148.00000000 
       12655.44772531            1.00000000        63520.58203125       163037.18750000       109119.38281250       220129.59375000        86273.98437500         1483.00000000          140.00000000          123.00000000           67.00000000          151.00000000          186.00000000          189.00000000          152.00000000          149.00000000          126.00000000          147.00000000           91.00000000          148.00000000 
       12663.09841692            1.00000000        63457.58984375       162869.18750000       109296.39062500       220243.59375000        86598.99218750         1483.00000000          140.00000000          123.00000000           67.00000000          151.00000000          186.00000000          189.00000000          152.00000000          149.00000000          126.00000000          147.00000000           91.00000000          148.00000000 
       12670.19852313            1.00000000        63310.58984375       162566.18750000       109342.39062500       220227.59375000        86958.99218750         1483.00000000          140.00000000          123.00000000           67.00000000          151.00000000          186.00000000          189.00000000          152.00000000          149.00000000          126.00000000          147.00000000           91.00000000          148.00000000 
       12678.07752407            1.00000000        63292.58984375       162410.18750000       109536.39062500       220144.59375000        87269.99218750         1483.00000000          140.00000000          123.00000000           67.00000000          151.00000000          186.00000000          189.00000000          152.00000000          149.00000000          126.00000000          147.00000000           91.00000000          148.00000000 
       12685.61562250            1.00000000        63057.58984375       161445.18750000       109225.39062500       219101.59375000        87241.99218750         1483.00000000          140.00000000          123.00000000           67.00000000          151.00000000          186.00000000          189.00000000          152.00000000          149.00000000          126.00000000          147.00000000           91.00000000          148.00000000 
       12693.54918127            1.00000000        63241.58984375       162570.18750000       110364.39062500       220445.59375000        88395.99218750         1483.00000000          140.00000000          123.00000000           67.00000000          151.00000000          186.00000000          189.00000000          152.00000000          149.00000000          126.00000000          147.00000000           91.00000000          148.00000000 
       12701.17626213            1.00000000        63143.59765625       162140.20312500       110424.39843750       220131.59375000        88627.00000000         1483.00000000          140.00000000          123.00000000           67.00000000          151.00000000          186.00000000          189.00000000          152.00000000          149.00000000          126.00000000          147.00000000           91.00000000          148.00000000 
       12709.02390400            1.00000000        63067.58984375       162095.18750000       110779.39062500       220412.59375000        89153.99218750         1483.00000000          140.00000000          123.00000000           67.00000000          151.00000000          186.00000000          189.00000000          152.00000000          149.00000000          126.00000000          147.00000000           91.00000000          148.00000000 
       12716.95188500            1.00000000        62984.58203125       161900.18750000       110990.38281250       220118.59375000        89512.98437500         1483.00000000          140.00000000          123.00000000           67.00000000          151.00000000          186.00000000          189.00000000          152.00000000          149.00000000          126.00000000          147.00000000           91.00000000          148.00000000 
       12724.67807574            1.00000000        63005.58203125       161976.18750000       111365.38281250       220373.59375000        90017.98437500         1483.00000000          140.00000000          123.00000000           67.00000000          151.00000000          186.00000000          189.00000000          152.00000000          149.00000000          126.00000000          147.00000000           91.00000000          148.00000000 
       12732.20171275            1.00000000        62794.58203125       161495.18750000       111347.38281250       219830.59375000        90207.98437500         1483.00000000          140.00000000          123.00000000           67.00000000          151.00000000          186.00000000          189.00000000          152.00000000          149.00000000          126.00000000          147.00000000           91.00000000          148.00000000 
       12739.98206702            1.00000000        62783.58203125       161652.18750000       111825.38281250       220460.59375000        90820.98437500         1483.00000000          140.00000000          123.00000000           67.00000000          151.00000000          186.00000000          189.00000000          152.00000000          149.00000000          126.00000000          147.00000000           91.00000000          148.00000000 
       12748.02007495            1.00000000        62812.58984375       161601.18750000       112095.39062500       220544.59375000        91273.99218750         1483.00000000          140.00000000          123.00000000           67.00000000          151.00000000          186.00000000          189.00000000          152.00000000          149.00000000          126.00000000          147.00000000           91.00000000          148.00000000 
       12755.35884431            1.00000000        62715.58203125       161387.18750000       112307.38281250       220557.59375000        91679.98437500         1483.00000000          140.00000000          123.00000000           67.00000000          151.00000000          186.00000000          189.00000000          152.00000000          149.00000000          126.00000000          147.00000000           91.00000000          148.00000000 
       12763.62963080            1.00000000        62624.58203125       161123.18750000       112528.38281250       220378.59375000        92132.98437500         1483.00000000          140.00000000          123.00000000           67.00000000          151.00000000          186.00000000          189.00000000          152.00000000          149.00000000          126.00000000          147.00000000           91.00000000          148.00000000 
       12771.87571536            1.00000000        62692.58984375       161258.18750000       113070.39062500       220666.59375000        92848.99218750         1483.00000000          140.00000000          123.00000000           67.00000000          151.00000000          186.00000000          189.00000000          152.00000000          149.00000000          126.00000000          147.00000000           91.00000000          148.00000000 
       12779.81208142            1.00000000        62671.59765625       161154.20312500       113389.39843750       220655.59375000        93393.00000000         1483.00000000          140.00000000          123.00000000           67.00000000          151.00000000          186.00000000          189.00000000          152.00000000          149.00000000          126.00000000          147.00000000           91.00000000          148.00000000 
       12787.68712575            1.00000000        62515.58984375       160990.18750000       113640.39062500       220635.59375000        93814.99218750         1483.00000000          140.00000000          123.00000000           67.00000000          151.00000000          186.00000000          189.00000000          152.00000000          149.00000000          126.00000000          147.00000000           91.00000000          148.00000000 
       12795.92901491            1.00000000        62452.58203125       160855.18750000       113892.38281250       220543.59375000        94315.98437500         1483.00000000          140.00000000          123.00000000           67.00000000          151.00000000          186.00000000          189.00000000          152.00000000          149.00000000          126.00000000          147.00000000           91.00000000          148.00000000 
       12803.96717432            1.00000000        62259.58203125       160712.18750000       114086.38281250       220562.59375000        94776.98437500         1483.00000000          140.00000000          123.00000000           67.00000000          151.00000000          186.00000000          189.00000000          152.00000000          149.00000000          126.00000000          147.00000000           91.00000000          148.00000000 
       12811.65763887            1.00000000        62302.58203125       160565.18750000       114320.38281250       220500.59375000        95159.98437500         1483.00000000          140.00000000          123.00000000           67.00000000          151.00000000          186.00000000          189.00000000          152.00000000          149.00000000          126.00000000          147.00000000           91.00000000          148.00000000 
       12819.82333106            1.00000000        62270.58203125       160399.18750000       114554.38281250       220581.59375000        95610.98437500         1483.00000000          140.00000000          123.00000000           67.00000000          151.00000000          186.00000000          189.00000000          152.00000000          149.00000000          126.00000000          147.00000000           91.00000000          148.00000000 
       12828.10721838            1.00000000        62211.57421875       160421.17187500       114890.38281250       220795.57812500        96126.97656250         1483.00000000          140.00000000          123.00000000           67.00000000          151.00000000          186.00000000          189.00000000          152.00000000          149.00000000          126.00000000          147.00000000           91.00000000          148.00000000 
       12836.61754105            1.00000000        62063.58203125       160199.18750000       115165.38281250       220700.59375000        96628.98437500         1483.00000000          140.00000000          123.00000000           67.00000000          151.00000000          186.00000000          189.00000000          152.00000000          149.00000000          126.00000000          147.00000000           91.00000000          148.00000000 
       12844.81548008            1.00000000        62153.58984375       160391.18750000       115771.39062500       221255.59375000        97345.99218750         1483.00000000          140.00000000          123.00000000           67.00000000          151.00000000          186.00000000          189.00000000          152.00000000          149.00000000          126.00000000          147.00000000           91.00000000          148.00000000 
       12853.42031888            1.00000000        62276.58203125       160725.18750000       116438.38281250       221649.59375000        98156.98437500         1483.00000000          140.00000000          123.00000000           67.00000000          151.00000000          186.00000000          189.00000000          152.00000000          149.00000000          126.00000000          147.00000000           91.00000000          148.00000000 
       12861.67607624            1.00000000        62213.58984375       160544.18750000       116741.39062500       221624.59375000        98680.99218750         1483.00000000          140.00000000          123.00000000           67.00000000          151.00000000          186.00000000          189.00000000          152.00000000          149.00000000          126.00000000          147.00000000           91.00000000          148.00000000 
       12869.47300923            1.00000000        62167.59765625       160448.20312500       117031.39843750       221694.59375000        99155.00000000         1483.00000000          140.00000000          123.00000000           67.00000000          151.00000000          186.00000000          189.00000000          152.00000000          149.00000000          126.00000000          147.00000000           91.00000000          148.00000000 
       12878.29217202            1.00000000        62141.58203125       160335.18750000       117304.38281250       221763.59375000        99669.98437500         1483.00000000          140.00000000          123.00000000           67.00000000          151.00000000          186.00000000          189.00000000          152.00000000          149.00000000          126.00000000          147.00000000           91.00000000          148.00000000 
       12887.19601564            1.00000000        62109.58203125       160244.18750000       117565.38281250       221895.59375000       100205.98437500         1483.00000000          140.00000000          123.00000000           67.00000000          151.00000000          186.00000000          189.00000000          152.00000000          149.00000000          126.00000000          147.00000000           91.00000000          148.00000000 
       12889.69567328            1.00000000        62052.58203125       160212.18750000       117642.38281250       221858.59375000       100320.98437500         1483.00000000          140.00000000          123.00000000           67.00000000          151.00000000          186.00000000          189.00000000          152.00000000          149.00000000          126.00000000          147.00000000           91.00000000          148.00000000 
